Wavelength    Value      
300.00    1016      
300.10    1033      
300.20    981       
300.30    933       
300.40    999       
300.50    1082      
300.60    976       
300.70    1019      
300.80    988       
300.90    953       
301.00    1018      
301.10    947       
301.20    1042      
301.30    1012      
301.40    978       
301.50    1015      
301.60    964       
301.70    980       
301.80    962       
301.90    1048      
302.00    972       
302.10    1173      
302.20    976       
302.30    959       
302.40    1126      
302.50    1034      
302.60    1020      
302.70    1112      
302.80    1020      
302.90    993       
303.00    1052      
303.10    1010      
303.20    1038      
303.30    1074      
303.40    1071      
303.50    1062      
303.60    1045      
303.70    1043      
303.80    1017      
303.90    1026      
304.00    1112      
304.10    1103      
304.20    1074      
304.30    1107      
304.40    1061      
304.50    1034      
304.60    1106      
304.70    1039      
304.80    1086      
304.90    1176      
305.00    1116      
305.10    1036      
305.20    1090      
305.30    1105      
305.40    1146      
305.50    1148      
305.60    1081      
305.70    1119      
305.80    1102      
305.90    1097      
306.00    1116      
306.10    1126      
306.20    1115      
306.30    1147      
306.40    1154      
306.50    1147      
306.60    1122      
306.70    1149      
306.80    1169      
306.90    1192      
307.00    1168      
307.10    1195      
307.20    1272      
307.30    1269      
307.40    1250      
307.50    1268      
307.60    1264      
307.70    1320      
307.80    1289      
307.90    1353      
308.00    1317      
308.10    1299      
308.20    1382      
308.30    1406      
308.40    1401      
308.50    1360      
308.60    1375      
308.70    1394      
308.80    1376      
308.90    1422      
309.00    1465      
309.10    1433      
309.20    1528      
309.30    1479      
309.40    1527      
309.50    1475      
309.60    1497      
309.70    1522      
309.80    1536      
309.90    1526      
310.00    1471      
310.10    1530      
310.20    1503      
310.30    1525      
310.40    1513      
310.50    1459      
310.60    1495      
310.70    1532      
310.80    1499      
310.90    1479      
311.00    1490      
311.10    1440      
311.20    1440      
311.30    1522      
311.40    1456      
311.50    1471      
311.60    1490      
311.70    1450      
311.80    1454      
311.90    1484      
312.00    1572      
312.10    1592      
312.20    1572      
312.30    1523      
312.40    1568      
312.50    1507      
312.60    1497      
312.70    1491      
312.80    1472      
312.90    1528      
313.00    1567      
313.10    1518      
313.20    1516      
313.30    1604      
313.40    1596      
313.50    1600      
313.60    1622      
313.70    1559      
313.80    1579      
313.90    1556      
314.00    1658      
314.10    1614      
314.20    1621      
314.30    1636      
314.40    1547      
314.50    1648      
314.60    1620      
314.70    1631      
314.80    1692      
314.90    1613      
315.00    1599      
315.10    1612      
315.20    1661      
315.30    1627      
315.40    1654      
315.50    1668      
315.60    1613      
315.70    1705      
315.80    1643      
315.90    1657      
316.00    1670      
316.10    1636      
316.20    1599      
316.30    1721      
316.40    1749      
316.50    1758      
316.60    1671      
316.70    1700      
316.80    1702      
316.90    1700      
317.00    1735      
317.10    1692      
317.20    1703      
317.30    1776      
317.40    1684      
317.50    1725      
317.60    1782      
317.70    1726      
317.80    1786      
317.90    1797      
318.00    1758      
318.10    1735      
318.20    1740      
318.30    1735      
318.40    1770      
318.50    1768      
318.60    1779      
318.70    1788      
318.80    1819      
318.90    1797      
319.00    1820      
319.10    1784      
319.20    1800      
319.30    1803      
319.40    1816      
319.50    1831      
319.60    1799      
319.70    1860      
319.80    1776      
319.90    1863      
320.00    1948      
320.10    1827      
320.20    1884      
320.30    1875      
320.40    1840      
320.50    1802      
320.60    1831      
320.70    1826      
320.80    1852      
320.90    1949      
321.00    1884      
321.10    1874      
321.20    1851      
321.30    1926      
321.40    1895      
321.50    1900      
321.60    1910      
321.70    1850      
321.80    1838      
321.90    1880      
322.00    1896      
322.10    1947      
322.20    2005      
322.30    1968      
322.40    1913      
322.50    1926      
322.60    1933      
322.70    1943      
322.80    2014      
322.90    1962      
323.00    1961      
323.10    1967      
323.20    1972      
323.30    1948      
323.40    1996      
323.50    2029      
323.60    2026      
323.70    1988      
323.80    2058      
323.90    1973      
324.00    2024      
324.10    2013      
324.20    2024      
324.30    2047      
324.40    1986      
324.50    2050      
324.60    2056      
324.70    1993      
324.80    2118      
324.90    2049      
325.00    2013      
325.10    2030      
325.20    2028      
325.30    2077      
325.40    2057      
325.50    2086      
325.60    2099      
325.70    2087      
325.80    2096      
325.90    2150      
326.00    2053      
326.10    2166      
326.20    2087      
326.30    2066      
326.40    2147      
326.50    2139      
326.60    2156      
326.70    2127      
326.80    2108      
326.90    2146      
327.00    2112      
327.10    2186      
327.20    2120      
327.30    2167      
327.40    2130      
327.50    2155      
327.60    2143      
327.70    2189      
327.80    2298      
327.90    2188      
328.00    2167      
328.10    2236      
328.20    2188      
328.30    2181      
328.40    2198      
328.50    2169      
328.60    2200      
328.70    2203      
328.80    2257      
328.90    2238      
329.00    2251      
329.10    2276      
329.20    2245      
329.30    2268      
329.40    2240      
329.50    2317      
329.60    2216      
329.70    2204      
329.80    2255      
329.90    2327      
330.00    2308      
330.10    2279      
330.20    2313      
330.30    2254      
330.40    2262      
330.50    2365      
330.60    2294      
330.70    2333      
330.80    2290      
330.90    2329      
331.00    2299      
331.10    2359      
331.20    2324      
331.30    2398      
331.40    2375      
331.50    2347      
331.60    2382      
331.70    2394      
331.80    2328      
331.90    2388      
332.00    2387      
332.10    2342      
332.20    2474      
332.30    2368      
332.40    2383      
332.50    2404      
332.60    2409      
332.70    2379      
332.80    2431      
332.90    2333      
333.00    2408      
333.10    2421      
333.20    2420      
333.30    2427      
333.40    2422      
333.50    2478      
333.60    2442      
333.70    2414      
333.80    2414      
333.90    2471      
334.00    2494      
334.10    2458      
334.20    2486      
334.30    2500      
334.40    2529      
334.50    2527      
334.60    2510      
334.70    2555      
334.80    2501      
334.90    2520      
335.00    2476      
335.10    2506      
335.20    2486      
335.30    2537      
335.40    2465      
335.50    2590      
335.60    2566      
335.70    2577      
335.80    2527      
335.90    2500      
336.00    2537      
336.10    2537      
336.20    2526      
336.30    2540      
336.40    2528      
336.50    2535      
336.60    2549      
336.70    2596      
336.80    2578      
336.90    2618      
337.00    2651      
337.10    2544      
337.20    2559      
337.30    2563      
337.40    2599      
337.50    2734      
337.60    2560      
337.70    2553      
337.80    2628      
337.90    2564      
338.00    2623      
338.10    2590      
338.20    2558      
338.30    2696      
338.40    2593      
338.50    2566      
338.60    2622      
338.70    2598      
338.80    2625      
338.90    2619      
339.00    2565      
339.10    2607      
339.20    2651      
339.30    2567      
339.40    2709      
339.50    2624      
339.60    2621      
339.70    2607      
339.80    2605      
339.90    2595      
340.00    2637      
340.10    2723      
340.20    2701      
340.30    2630      
340.40    2647      
340.50    2674      
340.60    2701      
340.70    2621      
340.80    2656      
340.90    2668      
341.00    2630      
341.10    2719      
341.20    2755      
341.30    2683      
341.40    2683      
341.50    2628      
341.60    2675      
341.70    2611      
341.80    2667      
341.90    2713      
342.00    2673      
342.10    2713      
342.20    2704      
342.30    2701      
342.40    2777      
342.50    2711      
342.60    2634      
342.70    2658      
342.80    2728      
342.90    2658      
343.00    2742      
343.10    2703      
343.20    2658      
343.30    2720      
343.40    2713      
343.50    2667      
343.60    2660      
343.70    2737      
343.80    2725      
343.90    2691      
344.00    2714      
344.10    2723      
344.20    2700      
344.30    2757      
344.40    2782      
344.50    2716      
344.60    2687      
344.70    2721      
344.80    2717      
344.90    2706      
345.00    2738      
345.10    2759      
345.20    2721      
345.30    2698      
345.40    2720      
345.50    2715      
345.60    2736      
345.70    2729      
345.80    2721      
345.90    2731      
346.00    2676      
346.10    2751      
346.20    2715      
346.30    2744      
346.40    2720      
346.50    2771      
346.60    2761      
346.70    2749      
346.80    2849      
346.90    2795      
347.00    2705      
347.10    2822      
347.20    2778      
347.30    2721      
347.40    2825      
347.50    2751      
347.60    2771      
347.70    2761      
347.80    2746      
347.90    2747      
348.00    2794      
348.10    2749      
348.20    2725      
348.30    2789      
348.40    2754      
348.50    2734      
348.60    2759      
348.70    2759      
348.80    2758      
348.90    2831      
349.00    2775      
349.10    2823      
349.20    2824      
349.30    2764      
349.40    2777      
349.50    2751      
349.60    2741      
349.70    2800      
349.80    2803      
349.90    2774      
350.00    2720      
350.10    2774      
350.20    2822      
350.30    2772      
350.40    2802      
350.50    2795      
350.60    2799      
350.70    2791      
350.80    2781      
350.90    2812      
351.00    2743      
351.10    2799      
351.20    2812      
351.30    2781      
351.40    2782      
351.50    2800      
351.60    2803      
351.70    2795      
351.80    2761      
351.90    2796      
352.00    2801      
352.10    2801      
352.20    2802      
352.30    2847      
352.40    2792      
352.50    2835      
352.60    2891      
352.70    2766      
352.80    2819      
352.90    2804      
353.00    2859      
353.10    2790      
353.20    2899      
353.30    2868      
353.40    2897      
353.50    2812      
353.60    2873      
353.70    2826      
353.80    2826      
353.90    2854      
354.00    2849      
354.10    2865      
354.20    2914      
354.30    2835      
354.40    2858      
354.50    2900      
354.60    2847      
354.70    2839      
354.80    2817      
354.90    2835      
355.00    2897      
355.10    2839      
355.20    2871      
355.30    2807      
355.40    2861      
355.50    2860      
355.60    2855      
355.70    2895      
355.80    2831      
355.90    2860      
356.00    2789      
356.10    2827      
356.20    2867      
356.30    2858      
356.40    2942      
356.50    2849      
356.60    2876      
356.70    2894      
356.80    2856      
356.90    2867      
357.00    2846      
357.10    2792      
357.20    2880      
357.30    2866      
357.40    2890      
357.50    2867      
357.60    2861      
357.70    2858      
357.80    2898      
357.90    2859      
358.00    2896      
358.10    2879      
358.20    2846      
358.30    2872      
358.40    2868      
358.50    2858      
358.60    2831      
358.70    2862      
358.80    2843      
358.90    2942      
359.00    2822      
359.10    2954      
359.20    2871      
359.30    2845      
359.40    2927      
359.50    2861      
359.60    2825      
359.70    2884      
359.80    2867      
359.90    2887      
360.00    2889      
360.10    2887      
360.20    2859      
360.30    2845      
360.40    2858      
360.50    2864      
360.60    2883      
360.70    2852      
360.80    2866      
360.90    2822      
361.00    2858      
361.10    2880      
361.20    2855      
361.30    2870      
361.40    2826      
361.50    2853      
361.60    2883      
361.70    2874      
361.80    2827      
361.90    2847      
362.00    2833      
362.10    2909      
362.20    2857      
362.30    2894      
362.40    2892      
362.50    2839      
362.60    2841      
362.70    2853      
362.80    2884      
362.90    2875      
363.00    2912      
363.10    2858      
363.20    2849      
363.30    2910      
363.40    2893      
363.50    2890      
363.60    2846      
363.70    2857      
363.80    2899      
363.90    2822      
364.00    2797      
364.10    2884      
364.20    2880      
364.30    2822      
364.40    2944      
364.50    2932      
364.60    2860      
364.70    2865      
364.80    2841      
364.90    2865      
365.00    2891      
365.10    2849      
365.20    2957      
365.30    2923      
365.40    2830      
365.50    2840      
365.60    2920      
365.70    2894      
365.80    2898      
365.90    2925      
366.00    2910      
366.10    2892      
366.20    2915      
366.30    2962      
366.40    3019      
366.50    2914      
366.60    3019      
366.70    3001      
366.80    2880      
366.90    3044      
367.00    2940      
367.10    2978      
367.20    2923      
367.30    2902      
367.40    2986      
367.50    3018      
367.60    2938      
367.70    3047      
367.80    3004      
367.90    2906      
368.00    2961      
368.10    2948      
368.20    3019      
368.30    3000      
368.40    2964      
368.50    3024      
368.60    3101      
368.70    3022      
368.80    2977      
368.90    3017      
369.00    2927      
369.10    2936      
369.20    2911      
369.30    2896      
369.40    2912      
369.50    2870      
369.60    2901      
369.70    2886      
369.80    2886      
369.90    2849      
370.00    2911      
370.10    2823      
370.20    2803      
370.30    2883      
370.40    2792      
370.50    2879      
370.60    2822      
370.70    2772      
370.80    2788      
370.90    2778      
371.00    2835      
371.10    2855      
371.20    2762      
371.30    2857      
371.40    2876      
371.50    2909      
371.60    2889      
371.70    2782      
371.80    2826      
371.90    2931      
372.00    2827      
372.10    2856      
372.20    2805      
372.30    2852      
372.40    2841      
372.50    2866      
372.60    2890      
372.70    2936      
372.80    2810      
372.90    2791      
373.00    2813      
373.10    2887      
373.20    2854      
373.30    2891      
373.40    2815      
373.50    2837      
373.60    2877      
373.70    2779      
373.80    2859      
373.90    2853      
374.00    2767      
374.10    2770      
374.20    2817      
374.30    2827      
374.40    2862      
374.50    2731      
374.60    2773      
374.70    2837      
374.80    2896      
374.90    2831      
375.00    2761      
375.10    2726      
375.20    2747      
375.30    2830      
375.40    2832      
375.50    2809      
375.60    2810      
375.70    2718      
375.80    2822      
375.90    2715      
376.00    2742      
376.10    2771      
376.20    2741      
376.30    2781      
376.40    2745      
376.50    2795      
376.60    2800      
376.70    2797      
376.80    2854      
376.90    2817      
377.00    2791      
377.10    2762      
377.20    2823      
377.30    2743      
377.40    2732      
377.50    2779      
377.60    2791      
377.70    2809      
377.80    2771      
377.90    2749      
378.00    2743      
378.10    2752      
378.20    2813      
378.30    2819      
378.40    2873      
378.50    2872      
378.60    2875      
378.70    2838      
378.80    2973      
378.90    2879      
379.00    2864      
379.10    2920      
379.20    2873      
379.30    2871      
379.40    2775      
379.50    2767      
379.60    2792      
379.70    2790      
379.80    2807      
379.90    2851      
380.00    2861      
380.10    2821      
380.20    2886      
380.30    2923      
380.40    2916      
380.50    2878      
380.60    2885      
380.70    2869      
380.80    2875      
380.90    2843      
381.00    2894      
381.10    2818      
381.20    2811      
381.30    2902      
381.40    2744      
381.50    2823      
381.60    2863      
381.70    2776      
381.80    2878      
381.90    2777      
382.00    2754      
382.10    2780      
382.20    2768      
382.30    2724      
382.40    2818      
382.50    2745      
382.60    2736      
382.70    2703      
382.80    2727      
382.90    2742      
383.00    2819      
383.10    2708      
383.20    2786      
383.30    2819      
383.40    2799      
383.50    2888      
383.60    2938      
383.70    2939      
383.80    2904      
383.90    2875      
384.00    2888      
384.10    2850      
384.20    2775      
384.30    2754      
384.40    2781      
384.50    2682      
384.60    2680      
384.70    2721      
384.80    2676      
384.90    2667      
385.00    2709      
385.10    2707      
385.20    2753      
385.30    2791      
385.40    2924      
385.50    2800      
385.60    2845      
385.70    2884      
385.80    2807      
385.90    2789      
386.00    2810      
386.10    2796      
386.20    2779      
386.30    2813      
386.40    2774      
386.50    2746      
386.60    2822      
386.70    2714      
386.80    2812      
386.90    2741      
387.00    2750      
387.10    2758      
387.20    2731      
387.30    2705      
387.40    2732      
387.50    2702      
387.60    2755      
387.70    2829      
387.80    2858      
387.90    2875      
388.00    2845      
388.10    2794      
388.20    2855      
388.30    2845      
388.40    2831      
388.50    2958      
388.60    2872      
388.70    2866      
388.80    2906      
388.90    2950      
389.00    2873      
389.10    2842      
389.20    2872      
389.30    2864      
389.40    2864      
389.50    2934      
389.60    2882      
389.70    2855      
389.80    2831      
389.90    2873      
390.00    2764      
390.10    2741      
390.20    2685      
390.30    2564      
390.40    2587      
390.50    2559      
390.60    2563      
390.70    2567      
390.80    2566      
390.90    2618      
391.00    2620      
391.10    2640      
391.20    2617      
391.30    2546      
391.40    2611      
391.50    2581      
391.60    2575      
391.70    2551      
391.80    2590      
391.90    2557      
392.00    2577      
392.10    2588      
392.20    2608      
392.30    2599      
392.40    2643      
392.50    2586      
392.60    2664      
392.70    2597      
392.80    2611      
392.90    2689      
393.00    2734      
393.10    2686      
393.20    2745      
393.30    2691      
393.40    2758      
393.50    2909      
393.60    2849      
393.70    2826      
393.80    2816      
393.90    2858      
394.00    2765      
394.10    2793      
394.20    2858      
394.30    2819      
394.40    2695      
394.50    2779      
394.60    2731      
394.70    2624      
394.80    2693      
394.90    2653      
395.00    2687      
395.10    2771      
395.20    2830      
395.30    2774      
395.40    2870      
395.50    2778      
395.60    2833      
395.70    2876      
395.80    2833      
395.90    2774      
396.00    2683      
396.10    2615      
396.20    2672      
396.30    2608      
396.40    2549      
396.50    2701      
396.60    2613      
396.70    2625      
396.80    2667      
396.90    2627      
397.00    2669      
397.10    2605      
397.20    2624      
397.30    2602      
397.40    2615      
397.50    2607      
397.60    2605      
397.70    2764      
397.80    2601      
397.90    2676      
398.00    2635      
398.10    2656      
398.20    2697      
398.30    2612      
398.40    2745      
398.50    2702      
398.60    2737      
398.70    2772      
398.80    2735      
398.90    2693      
399.00    2710      
399.10    2819      
399.20    2818      
399.30    2805      
399.40    2852      
399.50    2801      
399.60    2824      
399.70    2821      
399.80    2853      
399.90    2807      
400.00    2759      
400.10    2863      
400.20    2758      
400.30    2767      
400.40    2851      
400.50    2698      
400.60    2711      
400.70    2824      
400.80    2727      
400.90    2760      
401.00    2676      
401.10    2648      
401.20    2681      
401.30    2583      
401.40    2593      
401.50    2598      
401.60    2558      
401.70    2582      
401.80    2673      
401.90    2622      
402.00    2623      
402.10    2611      
402.20    2556      
402.30    2568      
402.40    2653      
402.50    2528      
402.60    2580      
402.70    2523      
402.80    2596      
402.90    2627      
403.00    2585      
403.10    2701      
403.20    2612      
403.30    2597      
403.40    2567      
403.50    2602      
403.60    2606      
403.70    2544      
403.80    2492      
403.90    2496      
404.00    2602      
404.10    2523      
404.20    2550      
404.30    2496      
404.40    2518      
404.50    2530      
404.60    2584      
404.70    2543      
404.80    2546      
404.90    2552      
405.00    2520      
405.10    2756      
405.20    2567      
405.30    2562      
405.40    2606      
405.50    2574      
405.60    2583      
405.70    2597      
405.80    2610      
405.90    2642      
406.00    2629      
406.10    2650      
406.20    2699      
406.30    2722      
406.40    2750      
406.50    2796      
406.60    2909      
406.70    2722      
406.80    2800      
406.90    2780      
407.00    2801      
407.10    2747      
407.20    2912      
407.30    2699      
407.40    2649      
407.50    2705      
407.60    2533      
407.70    2548      
407.80    2572      
407.90    2513      
408.00    2505      
408.10    2458      
408.20    2457      
408.30    2404      
408.40    2363      
408.50    2365      
408.60    2359      
408.70    2423      
408.80    2386      
408.90    2371      
409.00    2447      
409.10    2434      
409.20    2389      
409.30    2474      
409.40    2481      
409.50    2443      
409.60    2405      
409.70    2465      
409.80    2442      
409.90    2418      
410.00    2424      
410.10    2358      
410.20    2450      
410.30    2413      
410.40    2378      
410.50    2380      
410.60    2451      
410.70    2421      
410.80    2445      
410.90    2511      
411.00    2483      
411.10    2463      
411.20    2399      
411.30    2416      
411.40    2384      
411.50    2372      
411.60    2322      
411.70    2454      
411.80    2340      
411.90    2371      
412.00    2396      
412.10    2385      
412.20    2381      
412.30    2421      
412.40    2413      
412.50    2405      
412.60    2321      
412.70    2364      
412.80    2430      
412.90    2405      
413.00    2429      
413.10    2428      
413.20    2466      
413.30    2505      
413.40    2501      
413.50    2617      
413.60    2569      
413.70    2562      
413.80    2549      
413.90    2633      
414.00    2562      
414.10    2597      
414.20    2651      
414.30    2713      
414.40    2580      
414.50    2608      
414.60    2540      
414.70    2474      
414.80    2532      
414.90    2451      
415.00    2373      
415.10    2401      
415.20    2376      
415.30    2366      
415.40    2425      
415.50    2440      
415.60    2402      
415.70    2460      
415.80    2414      
415.90    2397      
416.00    2345      
416.10    2386      
416.20    2405      
416.30    2462      
416.40    2377      
416.50    2368      
416.60    2347      
416.70    2380      
416.80    2396      
416.90    2360      
417.00    2307      
417.10    2243      
417.20    2318      
417.30    2308      
417.40    2359      
417.50    2304      
417.60    2411      
417.70    2361      
417.80    2296      
417.90    2382      
418.00    2355      
418.10    2331      
418.20    2386      
418.30    2392      
418.40    2386      
418.50    2404      
418.60    2440      
418.70    2391      
418.80    2336      
418.90    2354      
419.00    2321      
419.10    2324      
419.20    2244      
419.30    2331      
419.40    2284      
419.50    2235      
419.60    2296      
419.70    2240      
419.80    2334      
419.90    2261      
420.00    2287      
420.10    2278      
420.20    2320      
420.30    2281      
420.40    2293      
420.50    2335      
420.60    2278      
420.70    2271      
420.80    2316      
420.90    2309      
421.00    2404      
421.10    2288      
421.20    2361      
421.30    2378      
421.40    2337      
421.50    2386      
421.60    2456      
421.70    2470      
421.80    2527      
421.90    2447      
422.00    2483      
422.10    2442      
422.20    2437      
422.30    2526      
422.40    2481      
422.50    2488      
422.60    2481      
422.70    2510      
422.80    2603      
422.90    2550      
423.00    2505      
423.10    2498      
423.20    2632      
423.30    2552      
423.40    2563      
423.50    2492      
423.60    2438      
423.70    2510      
423.80    2513      
423.90    2539      
424.00    2655      
424.10    2660      
424.20    2752      
424.30    2743      
424.40    2755      
424.50    2857      
424.60    2797      
424.70    2654      
424.80    2547      
424.90    2540      
425.00    2458      
425.10    2395      
425.20    2328      
425.30    2307      
425.40    2268      
425.50    2313      
425.60    2317      
425.70    2298      
425.80    2326      
425.90    2317      
426.00    2355      
426.10    2323      
426.20    2352      
426.30    2321      
426.40    2269      
426.50    2283      
426.60    2198      
426.70    2211      
426.80    2215      
426.90    2128      
427.00    2168      
427.10    2110      
427.20    2093      
427.30    2151      
427.40    2093      
427.50    2173      
427.60    2096      
427.70    2089      
427.80    2166      
427.90    2260      
428.00    2352      
428.10    2410      
428.20    2563      
428.30    2626      
428.40    2794      
428.50    2820      
428.60    2901      
428.70    2774      
428.80    2580      
428.90    2439      
429.00    2229      
429.10    2095      
429.20    2133      
429.30    2186      
429.40    2234      
429.50    2200      
429.60    2129      
429.70    2209      
429.80    2199      
429.90    2208      
430.00    2142      
430.10    2149      
430.20    2181      
430.30    2204      
430.40    2208      
430.50    2208      
430.60    2212      
430.70    2259      
430.80    2305      
430.90    2347      
431.00    2348      
431.10    2351      
431.20    2308      
431.30    2288      
431.40    2330      
431.50    2406      
431.60    2345      
431.70    2330      
431.80    2391      
431.90    2334      
432.00    2296      
432.10    2224      
432.20    2185      
432.30    2166      
432.40    2129      
432.50    2155      
432.60    2082      
432.70    2118      
432.80    2069      
432.90    2040      
433.00    2108      
433.10    2037      
433.20    2012      
433.30    2062      
433.40    2015      
433.50    2037      
433.60    2092      
433.70    2099      
433.80    2115      
433.90    2098      
434.00    1990      
434.10    2108      
434.20    2227      
434.30    2231      
434.40    2360      
434.50    2375      
434.60    2478      
434.70    2639      
434.80    2689      
434.90    2749      
435.00    2571      
435.10    2329      
435.20    2229      
435.30    2138      
435.40    2040      
435.50    2036      
435.60    1993      
435.70    2072      
435.80    2025      
435.90    1990      
436.00    2050      
436.10    2056      
436.20    2034      
436.30    2107      
436.40    2099      
436.50    2025      
436.60    1968      
436.70    1994      
436.80    1987      
436.90    2083      
437.00    2009      
437.10    2049      
437.20    2194      
437.30    2129      
437.40    2145      
437.50    2168      
437.60    2141      
437.70    2142      
437.80    2060      
437.90    1998      
438.00    2032      
438.10    2027      
438.20    1971      
438.30    2002      
438.40    1972      
438.50    1995      
438.60    2012      
438.70    1987      
438.80    2094      
438.90    2008      
439.00    2006      
439.10    2120      
439.20    2107      
439.30    2112      
439.40    2087      
439.50    2070      
439.60    2110      
439.70    2114      
439.80    2119      
439.90    2034      
440.00    2088      
440.10    2074      
440.20    2036      
440.30    2009      
440.40    2087      
440.50    2083      
440.60    1958      
440.70    1954      
440.80    2003      
440.90    1960      
441.00    1947      
441.10    1880      
441.20    1941      
441.30    1981      
441.40    1976      
441.50    2040      
441.60    2196      
441.70    2179      
441.80    2268      
441.90    2338      
442.00    2407      
442.10    2424      
442.20    2407      
442.30    2372      
442.40    2349      
442.50    2240      
442.60    2291      
442.70    2170      
442.80    2125      
442.90    2056      
443.00    2080      
443.10    2019      
443.20    2013      
443.30    1939      
443.40    1949      
443.50    2018      
443.60    1977      
443.70    2000      
443.80    2037      
443.90    2028      
444.00    2077      
444.10    2123      
444.20    2117      
444.30    2108      
444.40    2115      
444.50    2123      
444.60    2126      
444.70    2102      
444.80    2178      
444.90    2212      
445.00    2215      
445.10    2256      
445.20    2193      
445.30    2283      
445.40    2257      
445.50    2215      
445.60    2245      
445.70    2182      
445.80    2122      
445.90    2154      
446.00    2182      
446.10    2208      
446.20    2204      
446.30    2173      
446.40    2159      
446.50    2156      
446.60    2145      
446.70    2113      
446.80    2248      
446.90    2236      
447.00    2288      
447.10    2196      
447.20    2270      
447.30    2172      
447.40    2122      
447.50    2104      
447.60    2084      
447.70    1999      
447.80    2061      
447.90    2142      
448.00    2028      
448.10    2160      
448.20    2024      
448.30    2069      
448.40    2104      
448.50    2061      
448.60    2133      
448.70    2090      
448.80    2049      
448.90    2224      
449.00    2124      
449.10    2098      
449.20    2136      
449.30    2157      
449.40    2197      
449.50    2148      
449.60    2140      
449.70    2138      
449.80    2140      
449.90    2075      
450.00    2089      
450.10    2095      
450.20    2075      
450.30    2072      
450.40    2058      
450.50    2111      
450.60    2142      
450.70    2039      
450.80    2047      
450.90    1963      
451.00    2028      
451.10    1946      
451.20    2001      
451.30    1978      
451.40    2032      
451.50    1994      
451.60    2019      
451.70    2152      
451.80    1887      
451.90    1913      
452.00    1902      
452.10    1870      
452.20    1936      
452.30    1926      
452.40    1921      
452.50    1945      
452.60    1943      
452.70    1972      
452.80    2052      
452.90    1907      
453.00    1933      
453.10    1852      
453.20    1902      
453.30    1877      
453.40    1902      
453.50    1963      
453.60    1968      
453.70    2004      
453.80    1937      
453.90    1974      
454.00    1897      
454.10    1959      
454.20    1896      
454.30    1850      
454.40    1962      
454.50    1909      
454.60    1932      
454.70    1890      
454.80    1810      
454.90    1882      
455.00    1837      
455.10    1807      
455.20    1826      
455.30    1828      
455.40    1893      
455.50    1863      
455.60    1870      
455.70    2028      
455.80    1956      
455.90    1894      
456.00    1988      
456.10    1928      
456.20    1871      
456.30    1875      
456.40    1834      
456.50    1813      
456.60    1825      
456.70    1793      
456.80    1848      
456.90    1797      
457.00    1795      
457.10    1847      
457.20    1886      
457.30    1874      
457.40    1927      
457.50    1902      
457.60    1895      
457.70    1975      
457.80    1924      
457.90    2073      
458.00    2014      
458.10    1980      
458.20    2049      
458.30    2057      
458.40    2098      
458.50    2062      
458.60    2106      
458.70    2173      
458.80    2150      
458.90    2150      
459.00    2212      
459.10    2161      
459.20    2149      
459.30    2187      
459.40    2115      
459.50    2076      
459.60    2036      
459.70    1994      
459.80    2017      
459.90    2088      
460.00    2058      
460.10    2094      
460.20    2118      
460.30    2005      
460.40    2005      
460.50    1909      
460.60    1867      
460.70    1862      
460.80    1809      
460.90    1825      
461.00    1783      
461.10    1819      
461.20    1720      
461.30    1808      
461.40    1807      
461.50    1815      
461.60    1832      
461.70    1888      
461.80    1851      
461.90    1807      
462.00    1775      
462.10    1839      
462.20    1792      
462.30    1830      
462.40    1832      
462.50    1713      
462.60    1678      
462.70    1682      
462.80    1714      
462.90    1655      
463.00    1701      
463.10    1749      
463.20    1828      
463.30    1854      
463.40    2045      
463.50    1998      
463.60    2055      
463.70    2110      
463.80    2053      
463.90    2102      
464.00    2105      
464.10    2136      
464.20    2153      
464.30    2111      
464.40    2024      
464.50    2045      
464.60    1993      
464.70    2199      
464.80    2117      
464.90    2158      
465.00    2186      
465.10    2186      
465.20    2219      
465.30    2174      
465.40    2143      
465.50    2080      
465.60    2254      
465.70    2215      
465.80    2162      
465.90    2272      
466.00    2067      
466.10    1986      
466.20    1941      
466.30    2021      
466.40    1953      
466.50    2034      
466.60    2111      
466.70    2080      
466.80    1989      
466.90    1980      
467.00    1906      
467.10    1857      
467.20    1757      
467.30    1760      
467.40    1706      
467.50    1804      
467.60    1695      
467.70    1801      
467.80    1767      
467.90    1699      
468.00    1756      
468.10    1826      
468.20    1767      
468.30    1710      
468.40    1769      
468.50    1730      
468.60    1872      
468.70    1797      
468.80    1863      
468.90    1885      
469.00    1932      
469.10    1874      
469.20    1978      
469.30    1859      
469.40    1817      
469.50    1729      
469.60    1726      
469.70    1738      
469.80    1631      
469.90    1606      
470.00    1566      
470.10    1567      
470.20    1574      
470.30    1519      
470.40    1614      
470.50    1503      
470.60    1505      
470.70    1486      
470.80    1496      
470.90    1474      
471.00    1479      
471.10    1554      
471.20    1491      
471.30    1718      
471.40    1542      
471.50    1559      
471.60    1505      
471.70    1580      
471.80    1592      
471.90    1561      
472.00    1600      
472.10    1535      
472.20    1573      
472.30    1673      
472.40    1599      
472.50    1603      
472.60    1588      
472.70    1585      
472.80    1563      
472.90    1554      
473.00    1551      
473.10    1580      
473.20    1560      
473.30    1578      
473.40    1638      
473.50    1746      
473.60    1702      
473.70    1777      
473.80    1750      
473.90    1763      
474.00    1805      
474.10    1794      
474.20    1741      
474.30    1688      
474.40    1604      
474.50    1619      
474.60    1586      
474.70    1524      
474.80    1536      
474.90    1566      
475.00    1535      
475.10    1519      
475.20    1595      
475.30    1547      
475.40    1586      
475.50    1586      
475.60    1557      
475.70    1537      
475.80    1526      
475.90    1578      
476.00    1640      
476.10    1675      
476.20    1635      
476.30    1598      
476.40    1579      
476.50    1590      
476.60    1584      
476.70    1630      
476.80    1535      
476.90    1570      
477.00    1578      
477.10    1590      
477.20    1657      
477.30    1652      
477.40    1557      
477.50    1593      
477.60    1634      
477.70    1509      
477.80    1496      
477.90    1537      
478.00    1491      
478.10    1521      
478.20    1497      
478.30    1547      
478.40    1626      
478.50    1628      
478.60    1633      
478.70    1644      
478.80    1660      
478.90    1663      
479.00    1647      
479.10    1579      
479.20    1611      
479.30    1577      
479.40    1585      
479.50    1510      
479.60    1571      
479.70    1479      
479.80    1541      
479.90    1495      
480.00    1581      
480.10    1529      
480.20    1552      
480.30    1572      
480.40    1564      
480.50    1603      
480.60    1648      
480.70    1595      
480.80    1640      
480.90    1668      
481.00    1787      
481.10    1622      
481.20    1573      
481.30    1569      
481.40    1557      
481.50    1506      
481.60    1554      
481.70    1538      
481.80    1517      
481.90    1619      
482.00    1543      
482.10    1521      
482.20    1607      
482.30    1524      
482.40    1562      
482.50    1592      
482.60    1532      
482.70    1504      
482.80    1563      
482.90    1574      
483.00    1555      
483.10    1558      
483.20    1629      
483.30    1602      
483.40    1513      
483.50    1535      
483.60    1578      
483.70    1494      
483.80    1551      
483.90    1526      
484.00    1603      
484.10    1686      
484.20    1664      
484.30    1748      
484.40    1720      
484.50    1710      
484.60    1632      
484.70    1647      
484.80    1663      
484.90    1655      
485.00    1760      
485.10    1743      
485.20    1884      
485.30    1813      
485.40    1892      
485.50    1888      
485.60    1898      
485.70    1803      
485.80    1784      
485.90    1789      
486.00    1965      
486.10    2035      
486.20    2474      
486.30    2982      
486.40    4186      
486.50    4075      
486.60    4082      
486.70    4102      
486.80    4122      
486.90    4079      
487.00    4019      
487.10    3930      
487.20    2518      
487.30    1924      
487.40    1709      
487.50    1670      
487.60    1733      
487.70    1717      
487.80    1709      
487.90    1773      
488.00    1797      
488.10    1734      
488.20    1757      
488.30    1699      
488.40    1721      
488.50    1627      
488.60    1661      
488.70    1663      
488.80    1667      
488.90    1612      
489.00    1503      
489.10    1530      
489.20    1560      
489.30    1555      
489.40    1480      
489.50    1552      
489.60    1556      
489.70    1557      
489.80    1651      
489.90    1646      
490.00    1614      
490.10    1639      
490.20    1650      
490.30    1706      
490.40    1692      
490.50    1790      
490.60    1869      
490.70    1800      
490.80    1849      
490.90    1822      
491.00    1764      
491.10    1743      
491.20    1643      
491.30    1589      
491.40    1657      
491.50    1619      
491.60    1661      
491.70    1642      
491.80    1699      
491.90    1700      
492.00    1577      
492.10    1609      
492.20    1499      
492.30    1472      
492.40    1438      
492.50    1499      
492.60    1436      
492.70    1465      
492.80    1524      
492.90    1533      
493.00    1650      
493.10    1559      
493.20    1582      
493.30    1636      
493.40    1782      
493.50    1692      
493.60    1745      
493.70    1708      
493.80    1690      
493.90    1783      
494.00    1680      
494.10    1701      
494.20    1673      
494.30    1679      
494.40    1642      
494.50    1511      
494.60    1492      
494.70    1507      
494.80    1435      
494.90    1479      
495.00    1417      
495.10    1521      
495.20    1417      
495.30    1407      
495.40    1453      
495.50    1352      
495.60    1346      
495.70    1341      
495.80    1356      
495.90    1354      
496.00    1406      
496.10    1368      
496.20    1530      
496.30    1362      
496.40    1333      
496.50    1424      
496.60    1423      
496.70    1435      
496.80    1486      
496.90    1516      
497.00    1490      
497.10    1667      
497.20    1491      
497.30    1616      
497.40    1488      
497.50    1448      
497.60    1462      
497.70    1438      
497.80    1451      
497.90    1408      
498.00    1405      
498.10    1398      
498.20    1371      
498.30    1375      
498.40    1487      
498.50    1429      
498.60    1408      
498.70    1426      
498.80    1493      
498.90    1449      
499.00    1527      
499.10    1603      
499.20    1627      
499.30    1651      
499.40    1735      
499.50    1643      
499.60    1629      
499.70    1637      
499.80    1602      
499.90    1479      
500.00    1449      
500.10    1432      
500.20    1437      
500.30    1422      
500.40    1427      
500.50    1391      
500.60    1346      
500.70    1399      
500.80    1345      
500.90    1345      
501.00    1410      
501.10    1352      
501.20    1348      
501.30    1430      
501.40    1398      
501.50    1588      
501.60    1497      
501.70    1572      
501.80    1616      
501.90    1536      
502.00    1563      
502.10    1468      
502.20    1461      
502.30    1429      
502.40    1494      
502.50    1412      
502.60    1479      
502.70    1604      
502.80    1417      
502.90    1462      
503.00    1425      
503.10    1415      
503.20    1399      
503.30    1401      
503.40    1338      
503.50    1398      
503.60    1509      
503.70    1398      
503.80    1440      
503.90    1440      
504.00    1367      
504.10    1496      
504.20    1473      
504.30    1336      
504.40    1362      
504.50    1378      
504.60    1337      
504.70    1316      
504.80    1345      
504.90    1377      
505.00    1308      
505.10    1358      
505.20    1353      
505.30    1364      
505.40    1367      
505.50    1373      
505.60    1370      
505.70    1392      
505.80    1473      
505.90    1429      
506.00    1396      
506.10    1425      
506.20    1441      
506.30    1341      
506.40    1343      
506.50    1344      
506.60    1328      
506.70    1370      
506.80    1342      
506.90    1316      
507.00    1326      
507.10    1335      
507.20    1359      
507.30    1335      
507.40    1305      
507.50    1279      
507.60    1266      
507.70    1255      
507.80    1287      
507.90    1278      
508.00    1242      
508.10    1298      
508.20    1320      
508.30    1282      
508.40    1355      
508.50    1310      
508.60    1315      
508.70    1304      
508.80    1344      
508.90    1299      
509.00    1301      
509.10    1278      
509.20    1355      
509.30    1265      
509.40    1271      
509.50    1250      
509.60    1254      
509.70    1208      
509.80    1226      
509.90    1255      
510.00    1299      
510.10    1288      
510.20    1301      
510.30    1332      
510.40    1291      
510.50    1309      
510.60    1271      
510.70    1293      
510.80    1278      
510.90    1295      
511.00    1304      
511.10    1320      
511.20    1294      
511.30    1399      
511.40    1388      
511.50    1366      
511.60    1292      
511.70    1338      
511.80    1400      
511.90    1299      
512.00    1302      
512.10    1313      
512.20    1317      
512.30    1357      
512.40    1342      
512.50    1283      
512.60    1239      
512.70    1301      
512.80    1268      
512.90    1291      
513.00    1296      
513.10    1308      
513.20    1258      
513.30    1351      
513.40    1280      
513.50    1320      
513.60    1403      
513.70    1231      
513.80    1245      
513.90    1234      
514.00    1184      
514.10    1256      
514.20    1208      
514.30    1228      
514.40    1247      
514.50    1286      
514.60    1275      
514.70    1294      
514.80    1228      
514.90    1256      
515.00    1256      
515.10    1346      
515.20    1317      
515.30    1280      
515.40    1254      
515.50    1317      
515.60    1215      
515.70    1281      
515.80    1222      
515.90    1202      
516.00    1300      
516.10    1199      
516.20    1194      
516.30    1249      
516.40    1170      
516.50    1186      
516.60    1196      
516.70    1212      
516.80    1231      
516.90    1185      
517.00    1239      
517.10    1196      
517.20    1245      
517.30    1183      
517.40    1220      
517.50    1210      
517.60    1278      
517.70    1229      
517.80    1195      
517.90    1236      
518.00    1142      
518.10    1180      
518.20    1219      
518.30    1201      
518.40    1191      
518.50    1210      
518.60    1235      
518.70    1266      
518.80    1240      
518.90    1202      
519.00    1239      
519.10    1162      
519.20    1230      
519.30    1174      
519.40    1161      
519.50    1267      
519.60    1181      
519.70    1275      
519.80    1235      
519.90    1220      
520.00    1264      
520.10    1285      
520.20    1266      
520.30    1285      
520.40    1243      
520.50    1333      
520.60    1355      
520.70    1121      
520.80    1140      
520.90    1232      
521.00    1196      
521.10    1186      
521.20    1138      
521.30    1131      
521.40    1128      
521.50    1155      
521.60    1293      
521.70    1268      
521.80    1181      
521.90    1170      
522.00    1203      
522.10    1248      
522.20    1182      
522.30    1161      
522.40    1151      
522.50    1120      
522.60    1085      
522.70    1116      
522.80    1115      
522.90    1108      
523.00    1120      
523.10    1077      
523.20    1366      
523.30    1129      
523.40    1091      
523.50    1116      
523.60    1138      
523.70    1114      
523.80    1213      
523.90    1120      
524.00    1093      
524.10    1067      
524.20    1178      
524.30    1132      
524.40    1110      
524.50    1060      
524.60    1127      
524.70    1066      
524.80    1120      
524.90    1184      
525.00    1100      
525.10    1086      
525.20    1131      
525.30    1155      
525.40    1174      
525.50    1079      
525.60    1157      
525.70    1221      
525.80    1092      
525.90    1130      
526.00    1154      
526.10    1112      
526.20    1182      
526.30    1142      
526.40    1151      
526.50    1160      
526.60    1143      
526.70    1178      
526.80    1151      
526.90    1153      
527.00    1117      
527.10    1164      
527.20    1148      
527.30    1172      
527.40    1137      
527.50    1208      
527.60    1116      
527.70    1136      
527.80    1150      
527.90    1118      
528.00    1137      
528.10    1112      
528.20    1142      
528.30    1118      
528.40    1109      
528.50    1141      
528.60    1095      
528.70    1236      
528.80    1100      
528.90    1059      
529.00    1110      
529.10    1071      
529.20    1187      
529.30    1181      
529.40    1137      
529.50    1147      
529.60    1158      
529.70    1231      
529.80    1140      
529.90    1088      
530.00    1105      
530.10    1150      
530.20    1047      
530.30    1074      
530.40    1163      
530.50    1219      
530.60    1138      
530.70    1095      
530.80    1119      
530.90    1167      
531.00    1124      
531.10    1068      
531.20    1048      
531.30    1094      
531.40    1167      
531.50    1144      
531.60    1121      
531.70    1154      
531.80    1194      
531.90    1128      
532.00    1095      
532.10    1071      
532.20    1076      
532.30    1126      
532.40    1102      
532.50    1134      
532.60    1073      
532.70    1100      
532.80    1165      
532.90    1068      
533.00    1061      
533.10    1114      
533.20    1074      
533.30    1076      
533.40    1124      
533.50    1169      
533.60    1204      
533.70    1196      
533.80    1130      
533.90    1115      
534.00    1137      
534.10    1133      
534.20    1162      
534.30    1181      
534.40    1113      
534.50    1080      
534.60    1143      
534.70    1126      
534.80    1169      
534.90    1162      
535.00    1137      
535.10    1143      
535.20    1140      
535.30    1154      
535.40    1146      
535.50    1202      
535.60    1137      
535.70    1212      
535.80    1214      
535.90    1200      
536.00    1231      
536.10    1185      
536.20    1160      
536.30    1212      
536.40    1145      
536.50    1117      
536.60    1098      
536.70    1096      
536.80    1081      
536.90    1157      
537.00    1168      
537.10    1137      
537.20    1098      
537.30    1104      
537.40    1062      
537.50    1064      
537.60    1114      
537.70    1074      
537.80    1169      
537.90    1126      
538.00    1124      
538.10    1182      
538.20    1107      
538.30    1266      
538.40    1211      
538.50    1153      
538.60    1152      
538.70    1168      
538.80    1167      
538.90    1145      
539.00    1187      
539.10    1182      
539.20    1181      
539.30    1204      
539.40    1233      
539.50    1177      
539.60    1185      
539.70    1204      
539.80    1127      
539.90    1239      
540.00    1158      
540.10    1095      
540.20    1129      
540.30    1150      
540.40    1192      
540.50    1208      
540.60    1117      
540.70    1164      
540.80    1073      
540.90    1173      
541.00    1090      
541.10    1158      
541.20    1207      
541.30    1129      
541.40    1192      
541.50    1178      
541.60    1116      
541.70    1106      
541.80    1097      
541.90    1176      
542.00    1116      
542.10    1144      
542.20    1130      
542.30    1213      
542.40    1213      
542.50    1230      
542.60    1311      
542.70    1282      
542.80    1215      
542.90    1216      
543.00    1237      
543.10    1192      
543.20    1169      
543.30    1174      
543.40    1170      
543.50    1133      
543.60    1089      
543.70    1110      
543.80    1161      
543.90    1138      
544.00    1110      
544.10    1115      
544.20    1123      
544.30    1135      
544.40    1149      
544.50    1180      
544.60    1246      
544.70    1167      
544.80    1150      
544.90    1133      
545.00    1126      
545.10    1130      
545.20    1113      
545.30    1153      
545.40    1153      
545.50    1175      
545.60    1171      
545.70    1194      
545.80    1165      
545.90    1118      
546.00    1089      
546.10    1080      
546.20    1108      
546.30    1151      
546.40    1118      
546.50    1095      
546.60    1095      
546.70    1125      
546.80    1095      
546.90    1231      
547.00    1135      
547.10    1097      
547.20    1090      
547.30    1073      
547.40    1076      
547.50    1236      
547.60    1124      
547.70    1186      
547.80    1184      
547.90    1239      
548.00    1294      
548.10    1285      
548.20    1349      
548.30    1239      
548.40    1255      
548.50    1249      
548.60    1232      
548.70    1270      
548.80    1230      
548.90    1169      
549.00    1231      
549.10    1163      
549.20    1149      
549.30    1205      
549.40    1116      
549.50    1116      
549.60    1301      
549.70    1111      
549.80    1130      
549.90    1140      
550.00    1187      
550.10    1092      
550.20    1102      
550.30    1141      
550.40    1129      
550.50    1190      
550.60    1066      
550.70    1075      
550.80    1148      
550.90    1072      
551.00    1084      
551.10    1114      
551.20    1104      
551.30    1126      
551.40    1089      
551.50    1074      
551.60    1067      
551.70    1039      
551.80    1131      
551.90    1087      
552.00    1090      
552.10    1180      
552.20    1091      
552.30    1078      
552.40    1092      
552.50    1121      
552.60    1111      
552.70    1063      
552.80    1081      
552.90    1073      
553.00    1103      
553.10    1146      
553.20    1067      
553.30    1070      
553.40    1082      
553.50    1075      
553.60    1115      
553.70    1122      
553.80    1119      
553.90    1110      
554.00    1128      
554.10    1168      
554.20    1114      
554.30    1119      
554.40    1148      
554.50    1114      
554.60    1111      
554.70    1117      
554.80    1043      
554.90    1032      
555.00    1208      
555.10    1089      
555.20    1125      
555.30    1094      
555.40    1123      
555.50    1129      
555.60    1138      
555.70    1087      
555.80    1112      
555.90    1117      
556.00    1105      
556.10    1154      
556.20    1104      
556.30    1149      
556.40    1094      
556.50    1131      
556.60    1162      
556.70    1075      
556.80    1077      
556.90    1070      
557.00    1047      
557.10    1045      
557.20    1113      
557.30    1044      
557.40    1098      
557.50    1138      
557.60    1060      
557.70    1133      
557.80    1098      
557.90    1139      
558.00    1110      
558.10    1114      
558.20    1195      
558.30    1094      
558.40    1199      
558.50    1108      
558.60    1121      
558.70    1102      
558.80    1139      
558.90    1057      
559.00    977       
559.10    996       
559.20    1149      
559.30    1016      
559.40    1048      
559.50    1097      
559.60    1047      
559.70    1133      
559.80    1104      
559.90    1049      
560.00    1022      
560.10    1115      
560.20    1112      
560.30    1070      
560.40    1071      
560.50    1059      
560.60    1164      
560.70    1097      
560.80    1102      
560.90    1095      
561.00    1122      
561.10    1116      
561.20    1059      
561.30    1176      
561.40    1074      
561.50    1083      
561.60    1089      
561.70    1109      
561.80    1136      
561.90    1112      
562.00    1082      
562.10    1068      
562.20    1051      
562.30    1070      
562.40    1066      
562.50    1111      
562.60    1076      
562.70    1104      
562.80    1064      
562.90    1121      
563.00    1052      
563.10    1044      
563.20    1110      
563.30    1072      
563.40    1075      
563.50    1069      
563.60    1087      
563.70    1090      
563.80    1076      
563.90    1027      
564.00    1094      
564.10    1004      
564.20    1064      
564.30    998       
564.40    1031      
564.50    1119      
564.60    1064      
564.70    1100      
564.80    1081      
564.90    1032      
565.00    1165      
565.10    1104      
565.20    1064      
565.30    1018      
565.40    994       
565.50    1015      
565.60    1056      
565.70    1047      
565.80    1131      
565.90    1158      
566.00    1141      
566.10    991       
566.20    1049      
566.30    1014      
566.40    983       
566.50    998       
566.60    966       
566.70    1073      
566.80    1079      
566.90    1061      
567.00    1093      
567.10    1087      
567.20    1118      
567.30    1153      
567.40    1150      
567.50    1166      
567.60    1142      
567.70    1133      
567.80    1222      
567.90    1153      
568.00    1114      
568.10    1122      
568.20    1176      
568.30    1207      
568.40    1099      
568.50    1113      
568.60    1179      
568.70    1141      
568.80    1150      
568.90    1163      
569.00    1193      
569.10    1266      
569.20    1257      
569.30    1208      
569.40    1242      
569.50    1226      
569.60    1312      
569.70    1271      
569.80    1275      
569.90    1324      
570.00    1293      
570.10    1385      
570.20    1404      
570.30    1307      
570.40    1225      
570.50    1243      
570.60    1228      
570.70    1177      
570.80    1154      
570.90    1137      
571.00    1176      
571.10    1226      
571.20    1229      
571.30    1284      
571.40    1326      
571.50    1400      
571.60    1430      
571.70    1405      
571.80    1408      
571.90    1393      
572.00    1395      
572.10    1435      
572.20    1392      
572.30    1429      
572.40    1335      
572.50    1368      
572.60    1306      
572.70    1271      
572.80    1271      
572.90    1216      
573.00    1258      
573.10    1247      
573.20    1251      
573.30    1291      
573.40    1312      
573.50    1444      
573.60    1483      
573.70    1630      
573.80    1540      
573.90    1525      
574.00    1541      
574.10    1437      
574.20    1464      
574.30    1413      
574.40    1348      
574.50    1321      
574.60    1297      
574.70    1326      
574.80    1322      
574.90    1281      
575.00    1362      
575.10    1283      
575.20    1321      
575.30    1339      
575.40    1339      
575.50    1395      
575.60    1383      
575.70    1448      
575.80    1413      
575.90    1388      
576.00    1408      
576.10    1403      
576.20    1405      
576.30    1497      
576.40    1427      
576.50    1449      
576.60    1441      
576.70    1443      
576.80    1422      
576.90    1365      
577.00    1391      
577.10    1359      
577.20    1334      
577.30    1387      
577.40    1338      
577.50    1399      
577.60    1553      
577.70    1523      
577.80    1575      
577.90    1745      
578.00    1628      
578.10    1633      
578.20    1629      
578.30    1594      
578.40    1672      
578.50    1546      
578.60    1468      
578.70    1504      
578.80    1468      
578.90    1502      
579.00    1456      
579.10    1385      
579.20    1381      
579.30    1354      
579.40    1304      
579.50    1395      
579.60    1350      
579.70    1429      
579.80    1416      
579.90    1543      
580.00    1559      
580.10    1521      
580.20    1590      
580.30    1616      
580.40    1561      
580.50    1571      
580.60    1565      
580.70    1541      
580.80    1530      
580.90    1468      
581.00    1446      
581.10    1393      
581.20    1349      
581.30    1501      
581.40    1452      
581.50    1603      
581.60    1752      
581.70    1866      
581.80    1966      
581.90    2086      
582.00    2053      
582.10    2066      
582.20    1959      
582.30    1888      
582.40    1788      
582.50    1729      
582.60    1610      
582.70    1526      
582.80    1468      
582.90    1414      
583.00    1349      
583.10    1271      
583.20    1264      
583.30    1379      
583.40    1317      
583.50    1220      
583.60    1296      
583.70    1245      
583.80    1241      
583.90    1251      
584.00    1253      
584.10    1290      
584.20    1324      
584.30    1334      
584.40    1364      
584.50    1514      
584.60    1483      
584.70    1560      
584.80    1580      
584.90    1647      
585.00    1565      
585.10    1592      
585.20    1608      
585.30    1548      
585.40    1478      
585.50    1476      
585.60    1501      
585.70    1411      
585.80    1410      
585.90    1393      
586.00    1437      
586.10    1483      
586.20    1465      
586.30    1460      
586.40    1420      
586.50    1366      
586.60    1295      
586.70    1321      
586.80    1258      
586.90    1333      
587.00    1288      
587.10    1257      
587.20    1343      
587.30    1337      
587.40    1371      
587.50    1457      
587.60    1397      
587.70    1479      
587.80    1495      
587.90    1468      
588.00    1544      
588.10    1613      
588.20    1600      
588.30    1574      
588.40    1604      
588.50    1601      
588.60    1589      
588.70    1604      
588.80    1508      
588.90    1570      
589.00    1599      
589.10    1574      
589.20    1534      
589.30    1431      
589.40    1420      
589.50    1472      
589.60    1268      
589.70    1255      
589.80    1171      
589.90    1160      
590.00    1175      
590.10    1273      
590.20    1332      
590.30    1245      
590.40    1314      
590.50    1238      
590.60    1256      
590.70    1244      
590.80    1216      
590.90    1201      
591.00    1242      
591.10    1282      
591.20    1283      
591.30    1255      
591.40    1342      
591.50    1227      
591.60    1322      
591.70    1247      
591.80    1260      
591.90    1317      
592.00    1316      
592.10    1350      
592.20    1367      
592.30    1368      
592.40    1326      
592.50    1303      
592.60    1226      
592.70    1275      
592.80    1317      
592.90    1390      
593.00    1494      
593.10    1573      
593.20    1698      
593.30    1727      
593.40    1774      
593.50    1684      
593.60    1742      
593.70    1758      
593.80    1537      
593.90    1471      
594.00    1494      
594.10    1517      
594.20    1448      
594.30    1494      
594.40    1428      
594.50    1419      
594.60    1380      
594.70    1461      
594.80    1419      
594.90    1429      
595.00    1480      
595.10    1596      
595.20    1595      
595.30    1659      
595.40    1703      
595.50    1680      
595.60    1661      
595.70    1539      
595.80    1546      
595.90    1519      
596.00    1391      
596.10    1430      
596.20    1397      
596.30    1437      
596.40    1375      
596.50    1387      
596.60    1446      
596.70    1437      
596.80    1344      
596.90    1621      
597.00    1387      
597.10    1468      
597.20    1389      
597.30    1375      
597.40    1388      
597.50    1473      
597.60    1350      
597.70    1442      
597.80    1550      
597.90    1505      
598.00    1568      
598.10    1609      
598.20    1571      
598.30    1467      
598.40    1353      
598.50    1279      
598.60    1210      
598.70    1262      
598.80    1234      
598.90    1303      
599.00    1379      
599.10    1373      
599.20    1475      
599.30    1474      
599.40    1512      
599.50    1466      
599.60    1432      
599.70    1418      
599.80    1298      
599.90    1248      
600.00    1297      
600.10    1293      
600.20    1322      
600.30    1367      
600.40    1382      
600.50    1409      
600.60    1523      
600.70    1542      
600.80    1564      
600.90    1636      
601.00    1604      
601.10    1665      
601.20    1717      
601.30    1629      
601.40    1664      
601.50    1627      
601.60    1652      
601.70    1621      
601.80    1556      
601.90    1620      
602.00    1590      
602.10    1634      
602.20    1625      
602.30    1583      
602.40    1519      
602.50    1413      
602.60    1387      
602.70    1341      
602.80    1387      
602.90    1447      
603.00    1559      
603.10    1565      
603.20    1595      
603.30    1671      
603.40    1565      
603.50    1581      
603.60    1564      
603.70    1511      
603.80    1508      
603.90    1433      
604.00    1414      
604.10    1400      
604.20    1285      
604.30    1382      
604.40    1373      
604.50    1329      
604.60    1284      
604.70    1278      
604.80    1344      
604.90    1273      
605.00    1248      
605.10    1240      
605.20    1342      
605.30    1335      
605.40    1393      
605.50    1448      
605.60    1451      
605.70    1374      
605.80    1367      
605.90    1316      
606.00    1267      
606.10    1305      
606.20    1208      
606.30    1228      
606.40    1250      
606.50    1236      
606.60    1334      
606.70    1361      
606.80    1370      
606.90    1439      
607.00    1467      
607.10    1426      
607.20    1357      
607.30    1379      
607.40    1390      
607.50    1338      
607.60    1242      
607.70    1289      
607.80    1279      
607.90    1347      
608.00    1342      
608.10    1384      
608.20    1399      
608.30    1370      
608.40    1460      
608.50    1391      
608.60    1249      
608.70    1196      
608.80    1201      
608.90    1193      
609.00    1153      
609.10    1257      
609.20    1269      
609.30    1287      
609.40    1270      
609.50    1336      
609.60    1297      
609.70    1343      
609.80    1410      
609.90    1415      
610.00    1408      
610.10    1469      
610.20    1424      
610.30    1359      
610.40    1419      
610.50    1292      
610.60    1271      
610.70    1283      
610.80    1199      
610.90    1288      
611.00    1268      
611.10    1286      
611.20    1290      
611.30    1287      
611.40    1282      
611.50    1280      
611.60    1333      
611.70    1358      
611.80    1305      
611.90    1315      
612.00    1253      
612.10    1268      
612.20    1243      
612.30    1359      
612.40    1224      
612.50    1235      
612.60    1250      
612.70    1274      
612.80    1218      
612.90    1293      
613.00    1250      
613.10    1215      
613.20    1276      
613.30    1249      
613.40    1279      
613.50    1300      
613.60    1347      
613.70    1309      
613.80    1380      
613.90    1285      
614.00    1248      
614.10    1203      
614.20    1177      
614.30    1197      
614.40    1219      
614.50    1161      
614.60    1232      
614.70    1281      
614.80    1336      
614.90    1261      
615.00    1201      
615.10    1199      
615.20    1171      
615.30    1144      
615.40    1218      
615.50    1207      
615.60    1236      
615.70    1364      
615.80    1256      
615.90    1332      
616.00    1299      
616.10    1231      
616.20    1211      
616.30    1046      
616.40    1110      
616.50    1036      
616.60    1089      
616.70    1064      
616.80    1178      
616.90    1122      
617.00    1150      
617.10    1125      
617.20    1194      
617.30    1124      
617.40    1134      
617.50    1106      
617.60    1161      
617.70    1138      
617.80    1056      
617.90    1059      
618.00    1123      
618.10    1130      
618.20    1140      
618.30    1141      
618.40    1055      
618.50    1063      
618.60    1085      
618.70    1086      
618.80    1078      
618.90    1173      
619.00    1177      
619.10    1149      
619.20    1197      
619.30    1166      
619.40    1244      
619.50    1217      
619.60    1154      
619.70    1177      
619.80    1180      
619.90    1245      
620.00    1247      
620.10    1261      
620.20    1239      
620.30    1187      
620.40    1197      
620.50    1120      
620.60    1184      
620.70    1111      
620.80    1077      
620.90    1060      
621.00    1093      
621.10    998       
621.20    989       
621.30    961       
621.40    1036      
621.50    915       
621.60    1052      
621.70    978       
621.80    1025      
621.90    1110      
622.00    1128      
622.10    1080      
622.20    1206      
622.30    1203      
622.40    1149      
622.50    1193      
622.60    1172      
622.70    1170      
622.80    1175      
622.90    1212      
623.00    1194      
623.10    1132      
623.20    1180      
623.30    1114      
623.40    1090      
623.50    1084      
623.60    1058      
623.70    1061      
623.80    1143      
623.90    1074      
624.00    1091      
624.10    1066      
624.20    1093      
624.30    1089      
624.40    1150      
624.50    1081      
624.60    1147      
624.70    1028      
624.80    1114      
624.90    1087      
625.00    1069      
625.10    1008      
625.20    985       
625.30    935       
625.40    1065      
625.50    902       
625.60    927       
625.70    945       
625.80    993       
625.90    986       
626.00    1005      
626.10    1062      
626.20    1035      
626.30    992       
626.40    992       
626.50    1051      
626.60    993       
626.70    986       
626.80    930       
626.90    982       
627.00    1071      
627.10    1007      
627.20    984       
627.30    1069      
627.40    1048      
627.50    988       
627.60    1037      
627.70    1021      
627.80    1025      
627.90    1002      
628.00    1153      
628.10    1037      
628.20    1081      
628.30    1085      
628.40    1054      
628.50    1044      
628.60    989       
628.70    966       
628.80    975       
628.90    930       
629.00    950       
629.10    963       
629.20    965       
629.30    1046      
629.40    1047      
629.50    1039      
629.60    987       
629.70    1045      
629.80    1121      
629.90    969       
630.00    977       
630.10    937       
630.20    993       
630.30    971       
630.40    1073      
630.50    931       
630.60    938       
630.70    965       
630.80    933       
630.90    898       
631.00    893       
631.10    883       
631.20    965       
631.30    1046      
631.40    891       
631.50    963       
631.60    1001      
631.70    990       
631.80    915       
631.90    970       
632.00    891       
632.10    934       
632.20    915       
632.30    968       
632.40    927       
632.50    968       
632.60    963       
632.70    1113      
632.80    965       
632.90    921       
633.00    955       
633.10    870       
633.20    962       
633.30    946       
633.40    954       
633.50    969       
633.60    1007      
633.70    1009      
633.80    921       
633.90    963       
634.00    910       
634.10    896       
634.20    860       
634.30    1055      
634.40    909       
634.50    990       
634.60    957       
634.70    910       
634.80    903       
634.90    927       
635.00    938       
635.10    885       
635.20    910       
635.30    900       
635.40    911       
635.50    1043      
635.60    918       
635.70    1010      
635.80    952       
635.90    956       
636.00    917       
636.10    926       
636.20    898       
636.30    941       
636.40    1067      
636.50    992       
636.60    923       
636.70    988       
636.80    962       
636.90    994       
637.00    953       
637.10    934       
637.20    892       
637.30    903       
637.40    893       
637.50    939       
637.60    887       
637.70    893       
637.80    900       
637.90    952       
638.00    939       
638.10    977       
638.20    891       
638.30    972       
638.40    912       
638.50    925       
638.60    905       
638.70    960       
638.80    967       
638.90    990       
639.00    884       
639.10    915       
639.20    874       
639.30    881       
639.40    826       
639.50    897       
639.60    974       
639.70    913       
639.80    886       
639.90    913       
640.00    890       
640.10    906       
640.20    875       
640.30    851       
640.40    829       
640.50    856       
640.60    883       
640.70    889       
640.80    939       
640.90    944       
641.00    920       
641.10    869       
641.20    836       
641.30    877       
641.40    828       
641.50    870       
641.60    850       
641.70    859       
641.80    825       
641.90    915       
642.00    877       
642.10    916       
642.20    864       
642.30    827       
642.40    795       
642.50    820       
642.60    894       
642.70    877       
642.80    850       
642.90    866       
643.00    854       
643.10    875       
643.20    913       
643.30    917       
643.40    918       
643.50    838       
643.60    848       
643.70    880       
643.80    899       
643.90    915       
644.00    842       
644.10    848       
644.20    894       
644.30    868       
644.40    903       
644.50    833       
644.60    847       
644.70    919       
644.80    854       
644.90    873       
645.00    825       
645.10    926       
645.20    908       
645.30    892       
645.40    843       
645.50    903       
645.60    867       
645.70    901       
645.80    953       
645.90    902       
646.00    896       
646.10    964       
646.20    943       
646.30    874       
646.40    848       
646.50    907       
646.60    825       
646.70    887       
646.80    807       
646.90    833       
647.00    881       
647.10    913       
647.20    876       
647.30    845       
647.40    948       
647.50    852       
647.60    848       
647.70    821       
647.80    806       
647.90    835       
648.00    893       
648.10    881       
648.20    963       
648.30    918       
648.40    875       
648.50    901       
648.60    914       
648.70    890       
648.80    843       
648.90    866       
649.00    923       
649.10    859       
649.20    891       
649.30    953       
649.40    885       
649.50    859       
649.60    967       
649.70    894       
649.80    873       
649.90    868       
650.00    866       
650.10    859       
650.20    904       
650.30    892       
650.40    953       
650.50    857       
650.60    861       
650.70    829       
650.80    861       
650.90    832       
651.00    886       
651.10    933       
651.20    831       
651.30    968       
651.40    956       
651.50    891       
651.60    923       
651.70    925       
651.80    952       
651.90    938       
652.00    954       
652.10    849       
652.20    908       
652.30    935       
652.40    896       
652.50    917       
652.60    884       
652.70    860       
652.80    934       
652.90    846       
653.00    894       
653.10    839       
653.20    884       
653.30    951       
653.40    951       
653.50    899       
653.60    899       
653.70    865       
653.80    868       
653.90    869       
654.00    902       
654.10    849       
654.20    838       
654.30    802       
654.40    922       
654.50    842       
654.60    900       
654.70    920       
654.80    865       
654.90    846       
655.00    915       
655.10    813       
655.20    885       
655.30    860       
655.40    968       
655.50    1468      
655.60    2171      
655.70    3269      
655.80    4052      
655.90    4236      
656.00    4234      
656.10    4259      
656.20    4232      
656.30    4246      
656.40    4199      
656.50    4129      
656.60    3957      
656.70    2012      
656.80    1258      
656.90    926       
657.00    826       
657.10    813       
657.20    851       
657.30    969       
657.40    883       
657.50    844       
657.60    842       
657.70    843       
657.80    891       
657.90    914       
658.00    938       
658.10    899       
658.20    877       
658.30    931       
658.40    887       
658.50    947       
658.60    920       
658.70    831       
658.80    851       
658.90    916       
659.00    868       
659.10    876       
659.20    887       
659.30    835       
659.40    915       
659.50    835       
659.60    837       
659.70    862       
659.80    856       
659.90    869       
660.00    817       
660.10    849       
660.20    858       
660.30    821       
660.40    869       
660.50    829       
660.60    842       
660.70    859       
660.80    939       
660.90    933       
661.00    839       
661.10    870       
661.20    870       
661.30    853       
661.40    868       
661.50    870       
661.60    862       
661.70    898       
661.80    1033      
661.90    922       
662.00    977       
662.10    907       
662.20    883       
662.30    866       
662.40    837       
662.50    848       
662.60    857       
662.70    872       
662.80    876       
662.90    835       
663.00    869       
663.10    926       
663.20    858       
663.30    809       
663.40    945       
663.50    829       
663.60    873       
663.70    867       
663.80    936       
663.90    821       
664.00    890       
664.10    841       
664.20    885       
664.30    950       
664.40    888       
664.50    825       
664.60    862       
664.70    871       
664.80    906       
664.90    908       
665.00    859       
665.10    849       
665.20    875       
665.30    821       
665.40    923       
665.50    893       
665.60    888       
665.70    915       
665.80    877       
665.90    911       
666.00    867       
666.10    888       
666.20    865       
666.30    865       
666.40    850       
666.50    810       
666.60    822       
666.70    898       
666.80    880       
666.90    880       
667.00    836       
667.10    817       
667.20    873       
667.30    849       
667.40    828       
667.50    828       
667.60    876       
667.70    838       
667.80    836       
667.90    873       
668.00    865       
668.10    879       
668.20    849       
668.30    828       
668.40    850       
668.50    839       
668.60    881       
668.70    848       
668.80    837       
668.90    927       
669.00    918       
669.10    926       
669.20    1003      
669.30    871       
669.40    922       
669.50    864       
669.60    873       
669.70    848       
669.80    950       
669.90    888       
670.00    924       
670.10    866       
670.20    823       
670.30    847       
670.40    918       
670.50    840       
670.60    911       
670.70    829       
670.80    897       
670.90    839       
671.00    916       
671.10    909       
671.20    867       
671.30    835       
671.40    931       
671.50    855       
671.60    831       
671.70    832       
671.80    880       
671.90    922       
672.00    872       
672.10    882       
672.20    923       
672.30    876       
672.40    933       
672.50    852       
672.60    855       
672.70    826       
672.80    831       
672.90    856       
673.00    935       
673.10    873       
673.20    861       
673.30    885       
673.40    987       
673.50    964       
673.60    864       
673.70    818       
673.80    815       
673.90    891       
674.00    834       
674.10    860       
674.20    862       
674.30    860       
674.40    925       
674.50    815       
674.60    873       
674.70    834       
674.80    802       
674.90    840       
675.00    842       
675.10    863       
675.20    864       
675.30    849       
675.40    915       
675.50    862       
675.60    905       
675.70    884       
675.80    887       
675.90    885       
676.00    886       
676.10    860       
676.20    856       
676.30    862       
676.40    909       
676.50    856       
676.60    883       
676.70    849       
676.80    855       
676.90    854       
677.00    892       
677.10    830       
677.20    858       
677.30    867       
677.40    836       
677.50    841       
677.60    876       
677.70    851       
677.80    831       
677.90    873       
678.00    858       
678.10    882       
678.20    918       
678.30    921       
678.40    835       
678.50    900       
678.60    895       
678.70    829       
678.80    811       
678.90    869       
679.00    907       
679.10    891       
679.20    868       
679.30    885       
679.40    944       
679.50    1045      
679.60    949       
679.70    908       
679.80    927       
679.90    898       
680.00    863       
680.10    996       
680.20    871       
680.30    872       
680.40    867       
680.50    956       
680.60    870       
680.70    854       
680.80    954       
680.90    786       
681.00    868       
681.10    854       
681.20    867       
681.30    901       
681.40    922       
681.50    967       
681.60    963       
681.70    888       
681.80    909       
681.90    887       
682.00    858       
682.10    878       
682.20    832       
682.30    904       
682.40    954       
682.50    844       
682.60    917       
682.70    855       
682.80    868       
682.90    846       
683.00    844       
683.10    887       
683.20    932       
683.30    824       
683.40    868       
683.50    858       
683.60    876       
683.70    825       
683.80    907       
683.90    846       
684.00    896       
684.10    948       
684.20    907       
684.30    915       
684.40    928       
684.50    880       
684.60    900       
684.70    1023      
684.80    992       
684.90    956       
685.00    976       
685.10    1057      
685.20    987       
685.30    1048      
685.40    994       
685.50    1006      
685.60    979       
685.70    942       
685.80    998       
685.90    956       
686.00    895       
686.10    946       
686.20    882       
686.30    973       
686.40    889       
686.50    915       
686.60    929       
686.70    904       
686.80    911       
686.90    861       
687.00    920       
687.10    822       
687.20    926       
687.30    872       
687.40    910       
687.50    873       
687.60    889       
687.70    884       
687.80    936       
687.90    864       
688.00    892       
688.10    873       
688.20    824       
688.30    870       
688.40    884       
688.50    896       
688.60    912       
688.70    886       
688.80    855       
688.90    932       
689.00    831       
689.10    848       
689.20    899       
689.30    846       
689.40    868       
689.50    863       
689.60    869       
689.70    945       
689.80    929       
689.90    984       
690.00    894       
690.10    969       
690.20    913       
690.30    871       
690.40    848       
690.50    868       
690.60    891       
690.70    897       
690.80    957       
690.90    881       
691.00    903       
691.10    866       
691.20    864       
691.30    929       
691.40    891       
691.50    925       
691.60    963       
691.70    1031      
691.80    891       
691.90    922       
692.00    916       
692.10    875       
692.20    862       
692.30    834       
692.40    881       
692.50    957       
692.60    995       
692.70    873       
692.80    856       
692.90    862       
693.00    872       
693.10    904       
693.20    905       
693.30    963       
693.40    952       
693.50    970       
693.60    926       
693.70    943       
693.80    992       
693.90    908       
694.00    851       
694.10    900       
694.20    830       
694.30    860       
694.40    855       
694.50    906       
694.60    853       
694.70    908       
694.80    884       
694.90    888       
695.00    909       
695.10    863       
695.20    927       
695.30    861       
695.40    912       
695.50    916       
695.60    929       
695.70    890       
695.80    919       
695.90    918       
696.00    828       
696.10    816       
696.20    874       
696.30    836       
696.40    875       
696.50    787       
696.60    893       
696.70    862       
696.80    874       
696.90    906       
697.00    961       
697.10    898       
697.20    1064      
697.30    946       
697.40    956       
697.50    996       
697.60    918       
697.70    876       
697.80    943       
697.90    885       
698.00    874       
698.10    988       
698.20    922       
698.30    862       
698.40    838       
698.50    906       
698.60    852       
698.70    835       
698.80    925       
698.90    897       
699.00    886       
699.10    902       
699.20    878       
699.30    970       
699.40    954       
699.50    897       
699.60    873       
699.70    897       
699.80    932       
699.90    883       
700.00    888       
