Wavelength    Value   
450.00    801       
450.10    800       
450.20    821       
450.30    799       
450.40    833       
450.50    904       
450.60    881       
450.70    791       
450.80    825       
450.90    738       
451.00    826       
451.10    793       
451.20    834       
451.30    830       
451.40    830       
451.50    794       
451.60    826       
451.70    824       
451.80    779       
451.90    861       
452.00    778       
452.10    811       
452.20    817       
452.30    780       
452.40    751       
452.50    785       
452.60    795       
452.70    843       
452.80    814       
452.90    830       
453.00    789       
453.10    784       
453.20    806       
453.30    846       
453.40    813       
453.50    778       
453.60    794       
453.70    865       
453.80    894       
453.90    791       
454.00    764       
454.10    835       
454.20    775       
454.30    826       
454.40    804       
454.50    832       
454.60    817       
454.70    787       
454.80    822       
454.90    911       
455.00    833       
455.10    790       
455.20    792       
455.30    763       
455.40    762       
455.50    871       
455.60    828       
455.70    826       
455.80    840       
455.90    874       
456.00    908       
456.10    847       
456.20    806       
456.30    828       
456.40    742       
456.50    769       
456.60    850       
456.70    802       
456.80    815       
456.90    812       
457.00    761       
457.10    814       
457.20    805       
457.30    834       
457.40    772       
457.50    829       
457.60    788       
457.70    764       
457.80    892       
457.90    758       
458.00    908       
458.10    913       
458.20    837       
458.30    818       
458.40    815       
458.50    796       
458.60    751       
458.70    778       
458.80    870       
458.90    793       
459.00    832       
459.10    838       
459.20    800       
459.30    851       
459.40    802       
459.50    865       
459.60    793       
459.70    803       
459.80    785       
459.90    854       
460.00    816       
460.10    853       
460.20    811       
460.30    824       
460.40    880       
460.50    820       
460.60    825       
460.70    776       
460.80    812       
460.90    749       
461.00    807       
461.10    821       
461.20    828       
461.30    760       
461.40    847       
461.50    809       
461.60    786       
461.70    794       
461.80    861       
461.90    746       
462.00    836       
462.10    811       
462.20    780       
462.30    873       
462.40    817       
462.50    847       
462.60    794       
462.70    809       
462.80    831       
462.90    811       
463.00    771       
463.10    864       
463.20    855       
463.30    956       
463.40    818       
463.50    788       
463.60    982       
463.70    855       
463.80    793       
463.90    788       
464.00    878       
464.10    822       
464.20    788       
464.30    799       
464.40    852       
464.50    798       
464.60    753       
464.70    790       
464.80    893       
464.90    803       
465.00    779       
465.10    816       
465.20    785       
465.30    833       
465.40    778       
465.50    810       
465.60    849       
465.70    855       
465.80    885       
465.90    812       
466.00    820       
466.10    772       
466.20    782       
466.30    803       
466.40    800       
466.50    765       
466.60    850       
466.70    814       
466.80    918       
466.90    787       
467.00    826       
467.10    808       
467.20    891       
467.30    827       
467.40    774       
467.50    837       
467.60    839       
467.70    756       
467.80    785       
467.90    814       
468.00    809       
468.10    767       
468.20    826       
468.30    900       
468.40    775       
468.50    883       
468.60    879       
468.70    805       
468.80    830       
468.90    916       
469.00    836       
469.10    795       
469.20    791       
469.30    781       
469.40    747       
469.50    866       
469.60    776       
469.70    880       
469.80    790       
469.90    949       
470.00    877       
470.10    785       
470.20    861       
470.30    758       
470.40    775       
470.50    849       
470.60    794       
470.70    812       
470.80    845       
470.90    789       
471.00    795       
471.10    836       
471.20    887       
471.30    838       
471.40    810       
471.50    864       
471.60    819       
471.70    854       
471.80    843       
471.90    826       
472.00    893       
472.10    839       
472.20    803       
472.30    809       
472.40    853       
472.50    842       
472.60    856       
472.70    787       
472.80    746       
472.90    904       
473.00    821       
473.10    800       
473.20    854       
473.30    833       
473.40    902       
473.50    823       
473.60    823       
473.70    780       
473.80    823       
473.90    840       
474.00    878       
474.10    788       
474.20    873       
474.30    831       
474.40    862       
474.50    876       
474.60    832       
474.70    828       
474.80    794       
474.90    844       
475.00    868       
475.10    899       
475.20    817       
475.30    797       
475.40    971       
475.50    865       
475.60    844       
475.70    840       
475.80    838       
475.90    801       
476.00    835       
476.10    841       
476.20    821       
476.30    834       
476.40    837       
476.50    856       
476.60    829       
476.70    837       
476.80    911       
476.90    852       
477.00    864       
477.10    849       
477.20    817       
477.30    931       
477.40    809       
477.50    891       
477.60    862       
477.70    847       
477.80    945       
477.90    850       
478.00    875       
478.10    855       
478.20    809       
478.30    869       
478.40    830       
478.50    852       
478.60    864       
478.70    873       
478.80    844       
478.90    878       
479.00    824       
479.10    855       
479.20    851       
479.30    833       
479.40    878       
479.50    832       
479.60    893       
479.70    847       
479.80    866       
479.90    876       
480.00    874       
480.10    802       
480.20    990       
480.30    837       
480.40    861       
480.50    890       
480.60    849       
480.70    839       
480.80    881       
480.90    881       
481.00    845       
481.10    896       
481.20    898       
481.30    868       
481.40    830       
481.50    851       
481.60    893       
481.70    902       
481.80    878       
481.90    975       
482.00    862       
482.10    862       
482.20    955       
482.30    849       
482.40    888       
482.50    843       
482.60    836       
482.70    856       
482.80    930       
482.90    895       
483.00    907       
483.10    880       
483.20    966       
483.30    843       
483.40    1001      
483.50    845       
483.60    838       
483.70    854       
483.80    956       
483.90    911       
484.00    894       
484.10    908       
484.20    888       
484.30    911       
484.40    877       
484.50    884       
484.60    898       
484.70    892       
484.80    863       
484.90    965       
485.00    865       
485.10    987       
485.20    909       
485.30    855       
485.40    995       
485.50    918       
485.60    899       
485.70    933       
485.80    894       
485.90    901       
486.00    922       
486.10    914       
486.20    922       
486.30    1036      
486.40    992       
486.50    939       
486.60    938       
486.70    957       
486.80    909       
486.90    900       
487.00    919       
487.10    995       
487.20    920       
487.30    898       
487.40    967       
487.50    1014      
487.60    1070      
487.70    895       
487.80    907       
487.90    966       
488.00    913       
488.10    955       
488.20    958       
488.30    913       
488.40    997       
488.50    957       
488.60    983       
488.70    937       
488.80    1014      
488.90    951       
489.00    935       
489.10    904       
489.20    919       
489.30    1046      
489.40    932       
489.50    937       
489.60    976       
489.70    1009      
489.80    974       
489.90    946       
490.00    973       
490.10    950       
490.20    1059      
490.30    972       
490.40    1029      
490.50    981       
490.60    1040      
490.70    991       
490.80    991       
490.90    1016      
491.00    977       
491.10    994       
491.20    978       
491.30    1001      
491.40    970       
491.50    1078      
491.60    989       
491.70    1137      
491.80    1028      
491.90    1008      
492.00    1012      
492.10    989       
492.20    1015      
492.30    972       
492.40    1054      
492.50    1032      
492.60    1097      
492.70    1081      
492.80    1030      
492.90    1046      
493.00    1072      
493.10    1013      
493.20    1008      
493.30    998       
493.40    1038      
493.50    1013      
493.60    1116      
493.70    1096      
493.80    1073      
493.90    1072      
494.00    1096      
494.10    1108      
494.20    1022      
494.30    1033      
494.40    1015      
494.50    1041      
494.60    1051      
494.70    1072      
494.80    1101      
494.90    1066      
495.00    1085      
495.10    1129      
495.20    1069      
495.30    1086      
495.40    1086      
495.50    1067      
495.60    1060      
495.70    1112      
495.80    1109      
495.90    1114      
496.00    1203      
496.10    1120      
496.20    1128      
496.30    1138      
496.40    1142      
496.50    1110      
496.60    1091      
496.70    1169      
496.80    1156      
496.90    1162      
497.00    1127      
497.10    1181      
497.20    1158      
497.30    1188      
497.40    1195      
497.50    1245      
497.60    1187      
497.70    1173      
497.80    1146      
497.90    1171      
498.00    1253      
498.10    1189      
498.20    1247      
498.30    1191      
498.40    1212      
498.50    1306      
498.60    1229      
498.70    1183      
498.80    1190      
498.90    1205      
499.00    1270      
499.10    1225      
499.20    1190      
499.30    1267      
499.40    1250      
499.50    1254      
499.60    1239      
499.70    1322      
499.80    1256      
499.90    1206      
500.00    1261      
500.10    1265      
500.20    1236      
500.30    1323      
500.40    1279      
500.50    1306      
500.60    1303      
500.70    1261      
500.80    1282      
500.90    1332      
501.00    1306      
501.10    1284      
501.20    1316      
501.30    1329      
501.40    1302      
501.50    1373      
501.60    1343      
501.70    1313      
501.80    1429      
501.90    1376      
502.00    1323      
502.10    1341      
502.20    1370      
502.30    1377      
502.40    1350      
502.50    1374      
502.60    1407      
502.70    1455      
502.80    1419      
502.90    1372      
503.00    1523      
503.10    1447      
503.20    1523      
503.30    1436      
503.40    1389      
503.50    1476      
503.60    1526      
503.70    1457      
503.80    1507      
503.90    1467      
504.00    1512      
504.10    1546      
504.20    1505      
504.30    1468      
504.40    1611      
504.50    1585      
504.60    1509      
504.70    1598      
504.80    1571      
504.90    1630      
505.00    1607      
505.10    1551      
505.20    1553      
505.30    1507      
505.40    1569      
505.50    1688      
505.60    1551      
505.70    1580      
505.80    1637      
505.90    1626      
506.00    1647      
506.10    1570      
506.20    1684      
506.30    1658      
506.40    1648      
506.50    1645      
506.60    1604      
506.70    1662      
506.80    1679      
506.90    1680      
507.00    1753      
507.10    1696      
507.20    1753      
507.30    1767      
507.40    1702      
507.50    1686      
507.60    1775      
507.70    1812      
507.80    1799      
507.90    1722      
508.00    1705      
508.10    1763      
508.20    1853      
508.30    1799      
508.40    1811      
508.50    1837      
508.60    1768      
508.70    1802      
508.80    1884      
508.90    1834      
509.00    1888      
509.10    1871      
509.20    1931      
509.30    1852      
509.40    1914      
509.50    1910      
509.60    1869      
509.70    1861      
509.80    1981      
509.90    1914      
510.00    1996      
510.10    1951      
510.20    1966      
510.30    2067      
510.40    2016      
510.50    1910      
510.60    2028      
510.70    2032      
510.80    2106      
510.90    2033      
511.00    2044      
511.10    2038      
511.20    2044      
511.30    2057      
511.40    2090      
511.50    2064      
511.60    2050      
511.70    2047      
511.80    2086      
511.90    2121      
512.00    2222      
512.10    2113      
512.20    2192      
512.30    2122      
512.40    2182      
512.50    2208      
512.60    2166      
512.70    2307      
512.80    2163      
512.90    2205      
513.00    2299      
513.10    2221      
513.20    2198      
513.30    2342      
513.40    2252      
513.50    2390      
513.60    2218      
513.70    2257      
513.80    2265      
513.90    2312      
514.00    2307      
514.10    2468      
514.20    2308      
514.30    2428      
514.40    2415      
514.50    2342      
514.60    2363      
514.70    2384      
514.80    2344      
514.90    2337      
515.00    2354      
515.10    2426      
515.20    2433      
515.30    2478      
515.40    2482      
515.50    2445      
515.60    2507      
515.70    2500      
515.80    2515      
515.90    2524      
516.00    2498      
516.10    2452      
516.20    2506      
516.30    2514      
516.40    2463      
516.50    2514      
516.60    2657      
516.70    2563      
516.80    2556      
516.90    2587      
517.00    2535      
517.10    2586      
517.20    2558      
517.30    2589      
517.40    2672      
517.50    2660      
517.60    2570      
517.70    2627      
517.80    2612      
517.90    2640      
518.00    2623      
518.10    2662      
518.20    2618      
518.30    2633      
518.40    2664      
518.50    2660      
518.60    2731      
518.70    2771      
518.80    2653      
518.90    2648      
519.00    2727      
519.10    2788      
519.20    2775      
519.30    2666      
519.40    2777      
519.50    2690      
519.60    2714      
519.70    2740      
519.80    2732      
519.90    2751      
520.00    2770      
520.10    2781      
520.20    2831      
520.30    2792      
520.40    2709      
520.50    2729      
520.60    2809      
520.70    2762      
520.80    2794      
520.90    2756      
521.00    2744      
521.10    2787      
521.20    2717      
521.30    2819      
521.40    2756      
521.50    2754      
521.60    2756      
521.70    2786      
521.80    2784      
521.90    2737      
522.00    2809      
522.10    2831      
522.20    2779      
522.30    2933      
522.40    2762      
522.50    2791      
522.60    2826      
522.70    2819      
522.80    2869      
522.90    2823      
523.00    2839      
523.10    2757      
523.20    2901      
523.30    2795      
523.40    2844      
523.50    2820      
523.60    2767      
523.70    2758      
523.80    2787      
523.90    2751      
524.00    2851      
524.10    2900      
524.20    2824      
524.30    2794      
524.40    2771      
524.50    2817      
524.60    2740      
524.70    2707      
524.80    2775      
524.90    2760      
525.00    2813      
525.10    2777      
525.20    2795      
525.30    2768      
525.40    2705      
525.50    2761      
525.60    2712      
525.70    2713      
525.80    2690      
525.90    2697      
526.00    2744      
526.10    2702      
526.20    2756      
526.30    2667      
526.40    2714      
526.50    2722      
526.60    2681      
526.70    2687      
526.80    2703      
526.90    2611      
527.00    2665      
527.10    2730      
527.20    2587      
527.30    2739      
527.40    2621      
527.50    2604      
527.60    2586      
527.70    2608      
527.80    2589      
527.90    2648      
528.00    2604      
528.10    2562      
528.20    2589      
528.30    2575      
528.40    2645      
528.50    2540      
528.60    2612      
528.70    2525      
528.80    2533      
528.90    2559      
529.00    2496      
529.10    2482      
529.20    2492      
529.30    2529      
529.40    2523      
529.50    2554      
529.60    2446      
529.70    2457      
529.80    2440      
529.90    2439      
530.00    2437      
530.10    2382      
530.20    2399      
530.30    2408      
530.40    2400      
530.50    2444      
530.60    2422      
530.70    2403      
530.80    2391      
530.90    2390      
531.00    2471      
531.10    2393      
531.20    2407      
531.30    2365      
531.40    2488      
531.50    2339      
531.60    2418      
531.70    2375      
531.80    2414      
531.90    2319      
532.00    2321      
532.10    2295      
532.20    2325      
532.30    2270      
532.40    2365      
532.50    2236      
532.60    2313      
532.70    2333      
532.80    2246      
532.90    2291      
533.00    2238      
533.10    2198      
533.20    2202      
533.30    2149      
533.40    2173      
533.50    2237      
533.60    2144      
533.70    2158      
533.80    2124      
533.90    2127      
534.00    2170      
534.10    2207      
534.20    2106      
534.30    2085      
534.40    2021      
534.50    2020      
534.60    2123      
534.70    2105      
534.80    2094      
534.90    2050      
535.00    2115      
535.10    2046      
535.20    2007      
535.30    2066      
535.40    2067      
535.50    2025      
535.60    1994      
535.70    1993      
535.80    2018      
535.90    1984      
536.00    1930      
536.10    2088      
536.20    1980      
536.30    1971      
536.40    1899      
536.50    1947      
536.60    1945      
536.70    1962      
536.80    1884      
536.90    1934      
537.00    1925      
537.10    1879      
537.20    1946      
537.30    1861      
537.40    1843      
537.50    1877      
537.60    1891      
537.70    1819      
537.80    1858      
537.90    1816      
538.00    1884      
538.10    1847      
538.20    1833      
538.30    1885      
538.40    1855      
538.50    1778      
538.60    1777      
538.70    1794      
538.80    1810      
538.90    1779      
539.00    1759      
539.10    1747      
539.20    1825      
539.30    1813      
539.40    1734      
539.50    1711      
539.60    1747      
539.70    1661      
539.80    1670      
539.90    1706      
540.00    1722      
540.10    1702      
540.20    1756      
540.30    1701      
540.40    1823      
540.50    1705      
540.60    1702      
540.70    1615      
540.80    1690      
540.90    1701      
541.00    1660      
541.10    1674      
541.20    1628      
541.30    1685      
541.40    1628      
541.50    1656      
541.60    1599      
541.70    1618      
541.80    1572      
541.90    1592      
542.00    1659      
542.10    1599      
542.20    1596      
542.30    1572      
542.40    1628      
542.50    1547      
542.60    1551      
542.70    1570      
542.80    1559      
542.90    1562      
543.00    1623      
543.10    1544      
543.20    1612      
543.30    1584      
543.40    1558      
543.50    1546      
543.60    1538      
543.70    1538      
543.80    1576      
543.90    1474      
544.00    1552      
544.10    1477      
544.20    1489      
544.30    1438      
544.40    1482      
544.50    1469      
544.60    1477      
544.70    1495      
544.80    1496      
544.90    1459      
545.00    1498      
545.10    1449      
545.20    1466      
545.30    1531      
545.40    1471      
545.50    1469      
545.60    1544      
545.70    1438      
545.80    1472      
545.90    1430      
546.00    1408      
546.10    1395      
546.20    1431      
546.30    1467      
546.40    1449      
546.50    1358      
546.60    1384      
546.70    1400      
546.80    1382      
546.90    1449      
547.00    1336      
547.10    1379      
547.20    1360      
547.30    1352      
547.40    1384      
547.50    1351      
547.60    1425      
547.70    1389      
547.80    1332      
547.90    1375      
548.00    1334      
548.10    1358      
548.20    1331      
548.30    1375      
548.40    1313      
548.50    1370      
548.60    1343      
548.70    1272      
548.80    1430      
548.90    1328      
549.00    1378      
549.10    1300      
549.20    1257      
549.30    1316      
549.40    1244      
549.50    1296      
549.60    1286      
549.70    1238      
549.80    1306      
549.90    1304      
550.00    1302      
550.10    1439      
550.20    1261      
550.30    1253      
550.40    1310      
550.50    1268      
550.60    1250      
550.70    1285      
550.80    1260      
550.90    1263      
551.00    1286      
551.10    1220      
551.20    1224      
551.30    1248      
551.40    1228      
551.50    1196      
551.60    1231      
551.70    1280      
551.80    1174      
551.90    1191      
552.00    1209      
552.10    1227      
552.20    1238      
552.30    1229      
552.40    1242      
552.50    1175      
552.60    1148      
552.70    1203      
552.80    1163      
552.90    1137      
553.00    1171      
553.10    1215      
553.20    1176      
553.30    1187      
553.40    1257      
553.50    1110      
553.60    1177      
553.70    1164      
553.80    1158      
553.90    1131      
554.00    1178      
554.10    1163      
554.20    1171      
554.30    1144      
554.40    1139      
554.50    1109      
554.60    1110      
554.70    1118      
554.80    1075      
554.90    1081      
555.00    1097      
555.10    1131      
555.20    1135      
555.30    1100      
555.40    1248      
555.50    1160      
555.60    1129      
555.70    1143      
555.80    1065      
555.90    1094      
556.00    1132      
556.10    1128      
556.20    1097      
556.30    1168      
556.40    1064      
556.50    1063      
556.60    1071      
556.70    1106      
556.80    1048      
556.90    1155      
557.00    1024      
557.10    1071      
557.20    1080      
557.30    1101      
557.40    1071      
557.50    1099      
557.60    1047      
557.70    1018      
557.80    1128      
557.90    1091      
558.00    1056      
558.10    990       
558.20    1049      
558.30    1019      
558.40    1060      
558.50    1081      
558.60    1064      
558.70    1073      
558.80    1081      
558.90    1075      
559.00    1060      
559.10    1026      
559.20    995       
559.30    1077      
559.40    1065      
559.50    1085      
559.60    1061      
559.70    1047      
559.80    1011      
559.90    1159      
560.00    1005      
560.10    990       
560.20    1093      
560.30    980       
560.40    1009      
560.50    1028      
560.60    1031      
560.70    1064      
560.80    1009      
560.90    995       
561.00    1037      
561.10    980       
561.20    933       
561.30    1020      
561.40    927       
561.50    1041      
561.60    988       
561.70    1023      
561.80    963       
561.90    973       
562.00    954       
562.10    1000      
562.20    944       
562.30    969       
562.40    977       
562.50    999       
562.60    1005      
562.70    1065      
562.80    987       
562.90    1049      
563.00    983       
563.10    983       
563.20    926       
563.30    961       
563.40    937       
563.50    1078      
563.60    967       
563.70    1001      
563.80    942       
563.90    962       
564.00    971       
564.10    944       
564.20    1071      
564.30    936       
564.40    926       
564.50    1070      
564.60    1002      
564.70    938       
564.80    943       
564.90    939       
565.00    946       
565.10    968       
565.20    903       
565.30    1062      
565.40    952       
565.50    935       
565.60    928       
565.70    950       
565.80    924       
565.90    927       
566.00    909       
566.10    929       
566.20    900       
566.30    887       
566.40    956       
566.50    886       
566.60    933       
566.70    1000      
566.80    915       
566.90    921       
567.00    921       
567.10    923       
567.20    940       
567.30    893       
567.40    988       
567.50    926       
567.60    915       
567.70    930       
567.80    939       
567.90    904       
568.00    876       
568.10    970       
568.20    1103      
568.30    986       
568.40    908       
568.50    1013      
568.60    878       
568.70    960       
568.80    960       
568.90    920       
569.00    931       
569.10    931       
569.20    895       
569.30    967       
569.40    885       
569.50    938       
569.60    878       
569.70    897       
569.80    946       
569.90    898       
570.00    869       
570.10    871       
570.20    878       
570.30    953       
570.40    929       
570.50    974       
570.60    883       
570.70    846       
570.80    854       
570.90    993       
571.00    950       
571.10    936       
571.20    921       
571.30    850       
571.40    1064      
571.50    912       
571.60    868       
571.70    860       
571.80    918       
571.90    903       
572.00    848       
572.10    846       
572.20    904       
572.30    909       
572.40    855       
572.50    908       
572.60    948       
572.70    839       
572.80    865       
572.90    878       
573.00    811       
573.10    864       
573.20    899       
573.30    871       
573.40    852       
573.50    893       
573.60    847       
573.70    842       
573.80    906       
573.90    841       
574.00    915       
574.10    875       
574.20    881       
574.30    921       
574.40    845       
574.50    912       
574.60    915       
574.70    943       
574.80    850       
574.90    864       
575.00    858       
575.10    871       
575.20    879       
575.30    855       
575.40    884       
575.50    959       
575.60    881       
575.70    889       
575.80    843       
575.90    818       
576.00    824       
576.10    894       
576.20    870       
576.30    831       
576.40    868       
576.50    892       
576.60    921       
576.70    920       
576.80    927       
576.90    904       
577.00    874       
577.10    859       
577.20    819       
577.30    888       
577.40    881       
577.50    858       
577.60    878       
577.70    896       
577.80    911       
577.90    840       
578.00    912       
578.10    920       
578.20    832       
578.30    816       
578.40    839       
578.50    843       
578.60    886       
578.70    872       
578.80    891       
578.90    820       
579.00    887       
579.10    833       
579.20    887       
579.30    862       
579.40    807       
579.50    800       
579.60    907       
579.70    824       
579.80    841       
579.90    905       
580.00    875       
580.10    886       
580.20    831       
580.30    840       
580.40    852       
580.50    953       
580.60    833       
580.70    953       
580.80    873       
580.90    850       
581.00    834       
581.10    834       
581.20    809       
581.30    808       
581.40    909       
581.50    837       
581.60    854       
581.70    920       
581.80    884       
581.90    787       
582.00    870       
582.10    770       
582.20    893       
582.30    832       
582.40    785       
582.50    789       
582.60    882       
582.70    856       
582.80    826       
582.90    825       
583.00    900       
583.10    901       
583.20    845       
583.30    831       
583.40    861       
583.50    805       
583.60    818       
583.70    802       
583.80    867       
583.90    916       
584.00    839       
584.10    812       
584.20    861       
584.30    820       
584.40    814       
584.50    822       
584.60    888       
584.70    858       
584.80    806       
584.90    869       
585.00    803       
585.10    833       
585.20    950       
585.30    838       
585.40    837       
585.50    832       
585.60    786       
585.70    855       
585.80    886       
585.90    854       
586.00    868       
586.10    959       
586.20    796       
586.30    878       
586.40    771       
586.50    915       
586.60    806       
586.70    795       
586.80    899       
586.90    913       
587.00    833       
587.10    836       
587.20    852       
587.30    900       
587.40    957       
587.50    790       
587.60    942       
587.70    798       
587.80    761       
587.90    786       
588.00    822       
588.10    814       
588.20    857       
588.30    865       
588.40    947       
588.50    795       
588.60    842       
588.70    818       
588.80    820       
588.90    798       
589.00    857       
589.10    805       
589.20    838       
589.30    826       
589.40    837       
589.50    847       
589.60    881       
589.70    826       
589.80    805       
589.90    807       
590.00    893       
590.10    818       
590.20    861       
590.30    881       
590.40    828       
590.50    872       
590.60    941       
590.70    831       
590.80    825       
590.90    799       
591.00    793       
591.10    822       
591.20    811       
591.30    898       
591.40    840       
591.50    778       
591.60    932       
591.70    813       
591.80    799       
591.90    795       
592.00    828       
592.10    793       
592.20    821       
592.30    886       
592.40    928       
592.50    855       
592.60    790       
592.70    803       
592.80    775       
592.90    782       
593.00    778       
593.10    872       
593.20    784       
593.30    795       
593.40    800       
593.50    801       
593.60    879       
593.70    863       
593.80    837       
593.90    810       
594.00    777       
594.10    760       
594.20    806       
594.30    861       
594.40    819       
594.50    809       
594.60    864       
594.70    875       
594.80    873       
594.90    811       
595.00    796       
595.10    787       
595.20    871       
595.30    795       
595.40    770       
595.50    827       
595.60    795       
595.70    823       
595.80    824       
595.90    826       
596.00    815       
596.10    822       
596.20    815       
596.30    793       
596.40    949       
596.50    794       
596.60    818       
596.70    866       
596.80    847       
596.90    815       
597.00    810       
597.10    743       
597.20    828       
597.30    773       
597.40    794       
597.50    862       
597.60    836       
597.70    796       
597.80    821       
597.90    923       
598.00    912       
598.10    818       
598.20    821       
598.30    791       
598.40    791       
598.50    762       
598.60    830       
598.70    815       
598.80    792       
598.90    856       
599.00    831       
599.10    849       
599.20    762       
599.30    784       
599.40    784       
599.50    859       
599.60    814       
599.70    782       
599.80    883       
599.90    859       
600.00    875       
