Wavelength    Value    
550.00    799       
550.10    882       
550.20    781       
550.30    796       
550.40    799       
550.50    761       
550.60    815       
550.70    783       
550.80    817       
550.90    856       
551.00    910       
551.10    809       
551.20    870       
551.30    792       
551.40    811       
551.50    799       
551.60    755       
551.70    809       
551.80    756       
551.90    835       
552.00    868       
552.10    799       
552.20    837       
552.30    785       
552.40    755       
552.50    780       
552.60    827       
552.70    818       
552.80    956       
552.90    829       
553.00    802       
553.10    882       
553.20    823       
553.30    816       
553.40    859       
553.50    795       
553.60    785       
553.70    753       
553.80    907       
553.90    901       
554.00    814       
554.10    840       
554.20    832       
554.30    830       
554.40    792       
554.50    827       
554.60    788       
554.70    830       
554.80    777       
554.90    798       
555.00    802       
555.10    826       
555.20    817       
555.30    817       
555.40    818       
555.50    782       
555.60    820       
555.70    858       
555.80    841       
555.90    766       
556.00    823       
556.10    821       
556.20    765       
556.30    957       
556.40    806       
556.50    818       
556.60    790       
556.70    775       
556.80    812       
556.90    830       
557.00    868       
557.10    826       
557.20    814       
557.30    812       
557.40    883       
557.50    845       
557.60    831       
557.70    747       
557.80    773       
557.90    820       
558.00    800       
558.10    819       
558.20    788       
558.30    806       
558.40    844       
558.50    820       
558.60    839       
558.70    750       
558.80    771       
558.90    872       
559.00    789       
559.10    906       
559.20    788       
559.30    841       
559.40    879       
559.50    829       
559.60    875       
559.70    916       
559.80    755       
559.90    888       
560.00    829       
560.10    776       
560.20    791       
560.30    781       
560.40    802       
560.50    804       
560.60    800       
560.70    811       
560.80    779       
560.90    813       
561.00    821       
561.10    808       
561.20    848       
561.30    808       
561.40    842       
561.50    780       
561.60    824       
561.70    840       
561.80    818       
561.90    803       
562.00    823       
562.10    871       
562.20    842       
562.30    839       
562.40    750       
562.50    813       
562.60    743       
562.70    800       
562.80    985       
562.90    782       
563.00    817       
563.10    759       
563.20    809       
563.30    826       
563.40    851       
563.50    830       
563.60    766       
563.70    819       
563.80    794       
563.90    828       
564.00    791       
564.10    801       
564.20    798       
564.30    818       
564.40    819       
564.50    784       
564.60    821       
564.70    768       
564.80    831       
564.90    791       
565.00    842       
565.10    780       
565.20    795       
565.30    842       
565.40    784       
565.50    779       
565.60    878       
565.70    879       
565.80    865       
565.90    790       
566.00    882       
566.10    823       
566.20    810       
566.30    843       
566.40    861       
566.50    793       
566.60    750       
566.70    982       
566.80    849       
566.90    760       
567.00    822       
567.10    808       
567.20    864       
567.30    788       
567.40    831       
567.50    950       
567.60    773       
567.70    828       
567.80    784       
567.90    798       
568.00    781       
568.10    843       
568.20    869       
568.30    800       
568.40    794       
568.50    826       
568.60    810       
568.70    808       
568.80    828       
568.90    782       
569.00    844       
569.10    841       
569.20    803       
569.30    889       
569.40    857       
569.50    808       
569.60    816       
569.70    833       
569.80    821       
569.90    784       
570.00    779       
570.10    894       
570.20    776       
570.30    790       
570.40    828       
570.50    779       
570.60    841       
570.70    873       
570.80    796       
570.90    851       
571.00    829       
571.10    841       
571.20    824       
571.30    796       
571.40    883       
571.50    804       
571.60    847       
571.70    813       
571.80    884       
571.90    805       
572.00    809       
572.10    786       
572.20    838       
572.30    857       
572.40    858       
572.50    817       
572.60    801       
572.70    802       
572.80    795       
572.90    750       
573.00    799       
573.10    782       
573.20    812       
573.30    865       
573.40    821       
573.50    813       
573.60    782       
573.70    822       
573.80    796       
573.90    805       
574.00    800       
574.10    807       
574.20    826       
574.30    832       
574.40    799       
574.50    795       
574.60    800       
574.70    812       
574.80    847       
574.90    878       
575.00    792       
575.10    826       
575.20    814       
575.30    786       
575.40    856       
575.50    808       
575.60    923       
575.70    824       
575.80    850       
575.90    830       
576.00    811       
576.10    916       
576.20    785       
576.30    786       
576.40    844       
576.50    855       
576.60    874       
576.70    797       
576.80    916       
576.90    782       
577.00    858       
577.10    805       
577.20    848       
577.30    883       
577.40    778       
577.50    802       
577.60    835       
577.70    894       
577.80    781       
577.90    831       
578.00    800       
578.10    813       
578.20    802       
578.30    770       
578.40    956       
578.50    790       
578.60    847       
578.70    855       
578.80    847       
578.90    775       
579.00    930       
579.10    850       
579.20    867       
579.30    786       
579.40    789       
579.50    837       
579.60    793       
579.70    848       
579.80    830       
579.90    912       
580.00    835       
580.10    952       
580.20    826       
580.30    826       
580.40    816       
580.50    830       
580.60    827       
580.70    821       
580.80    837       
580.90    805       
581.00    933       
581.10    855       
581.20    798       
581.30    849       
581.40    763       
581.50    853       
581.60    910       
581.70    828       
581.80    816       
581.90    838       
582.00    873       
582.10    836       
582.20    841       
582.30    817       
582.40    845       
582.50    810       
582.60    840       
582.70    858       
582.80    804       
582.90    836       
583.00    842       
583.10    875       
583.20    859       
583.30    862       
583.40    884       
583.50    806       
583.60    827       
583.70    848       
583.80    832       
583.90    863       
584.00    859       
584.10    820       
584.20    836       
584.30    835       
584.40    817       
584.50    856       
584.60    794       
584.70    835       
584.80    849       
584.90    884       
585.00    804       
585.10    917       
585.20    810       
585.30    960       
585.40    854       
585.50    813       
585.60    856       
585.70    857       
585.80    842       
585.90    872       
586.00    892       
586.10    813       
586.20    872       
586.30    833       
586.40    841       
586.50    806       
586.60    811       
586.70    839       
586.80    848       
586.90    811       
587.00    854       
587.10    822       
587.20    795       
587.30    834       
587.40    836       
587.50    825       
587.60    782       
587.70    823       
587.80    781       
587.90    859       
588.00    850       
588.10    862       
588.20    911       
588.30    861       
588.40    827       
588.50    783       
588.60    827       
588.70    879       
588.80    822       
588.90    832       
589.00    956       
589.10    825       
589.20    857       
589.30    884       
589.40    865       
589.50    850       
589.60    879       
589.70    824       
589.80    796       
589.90    839       
590.00    810       
590.10    876       
590.20    893       
590.30    945       
590.40    890       
590.50    868       
590.60    870       
590.70    896       
590.80    893       
590.90    901       
591.00    782       
591.10    850       
591.20    807       
591.30    855       
591.40    874       
591.50    805       
591.60    844       
591.70    891       
591.80    887       
591.90    829       
592.00    813       
592.10    829       
592.20    878       
592.30    891       
592.40    876       
592.50    868       
592.60    866       
592.70    991       
592.80    817       
592.90    840       
593.00    846       
593.10    811       
593.20    874       
593.30    891       
593.40    841       
593.50    885       
593.60    865       
593.70    908       
593.80    878       
593.90    860       
594.00    957       
594.10    874       
594.20    822       
594.30    877       
594.40    913       
594.50    886       
594.60    878       
594.70    885       
594.80    923       
594.90    920       
595.00    847       
595.10    849       
595.20    897       
595.30    846       
595.40    841       
595.50    893       
595.60    969       
595.70    829       
595.80    920       
595.90    871       
596.00    908       
596.10    941       
596.20    924       
596.30    803       
596.40    927       
596.50    897       
596.60    1028      
596.70    906       
596.80    902       
596.90    971       
597.00    885       
597.10    902       
597.20    853       
597.30    858       
597.40    968       
597.50    882       
597.60    876       
597.70    964       
597.80    934       
597.90    907       
598.00    881       
598.10    906       
598.20    890       
598.30    940       
598.40    874       
598.50    911       
598.60    949       
598.70    967       
598.80    892       
598.90    997       
599.00    1008      
599.10    987       
599.20    940       
599.30    889       
599.40    919       
599.50    900       
599.60    947       
599.70    923       
599.80    909       
599.90    953       
600.00    924       
600.10    979       
600.20    954       
600.30    965       
600.40    1019      
600.50    890       
600.60    946       
600.70    962       
600.80    999       
600.90    994       
601.00    970       
601.10    1039      
601.20    1047      
601.30    959       
601.40    954       
601.50    962       
601.60    982       
601.70    998       
601.80    934       
601.90    1015      
602.00    1073      
602.10    1009      
602.20    1031      
602.30    1004      
602.40    1001      
602.50    980       
602.60    954       
602.70    942       
602.80    1013      
602.90    938       
603.00    1002      
603.10    1055      
603.20    1064      
603.30    962       
603.40    1078      
603.50    1040      
603.60    1032      
603.70    997       
603.80    1170      
603.90    985       
604.00    1092      
604.10    1057      
604.20    1034      
604.30    1062      
604.40    1060      
604.50    1046      
604.60    1045      
604.70    1072      
604.80    1140      
604.90    1078      
605.00    1066      
605.10    1065      
605.20    1107      
605.30    1133      
605.40    1058      
605.50    1129      
605.60    1078      
605.70    1115      
605.80    1114      
605.90    1144      
606.00    1089      
606.10    1065      
606.20    1088      
606.30    1144      
606.40    1134      
606.50    1088      
606.60    1129      
606.70    1078      
606.80    1093      
606.90    1115      
607.00    1102      
607.10    1129      
607.20    1182      
607.30    1139      
607.40    1117      
607.50    1132      
607.60    1123      
607.70    1133      
607.80    1108      
607.90    1114      
608.00    1075      
608.10    1130      
608.20    1095      
608.30    1132      
608.40    1128      
608.50    1171      
608.60    1139      
608.70    1102      
608.80    1182      
608.90    1153      
609.00    1117      
609.10    1168      
609.20    1137      
609.30    1135      
609.40    1202      
609.50    1217      
609.60    1176      
609.70    1130      
609.80    1143      
609.90    1198      
610.00    1150      
610.10    1167      
610.20    1265      
610.30    1257      
610.40    1179      
610.50    1261      
610.60    1249      
610.70    1299      
610.80    1289      
610.90    1236      
611.00    1277      
611.10    1276      
611.20    1318      
611.30    1255      
611.40    1322      
611.50    1340      
611.60    1420      
611.70    1391      
611.80    1304      
611.90    1347      
612.00    1319      
612.10    1384      
612.20    1433      
612.30    1362      
612.40    1396      
612.50    1427      
612.60    1421      
612.70    1390      
612.80    1439      
612.90    1404      
613.00    1422      
613.10    1403      
613.20    1398      
613.30    1430      
613.40    1396      
613.50    1456      
613.60    1518      
613.70    1377      
613.80    1515      
613.90    1409      
614.00    1390      
614.10    1383      
614.20    1374      
614.30    1414      
614.40    1463      
614.50    1414      
614.60    1440      
614.70    1461      
614.80    1492      
614.90    1474      
615.00    1423      
615.10    1438      
615.20    1432      
615.30    1406      
615.40    1436      
615.50    1410      
615.60    1423      
615.70    1499      
615.80    1422      
615.90    1530      
616.00    1494      
616.10    1507      
616.20    1483      
616.30    1428      
616.40    1504      
616.50    1486      
616.60    1564      
616.70    1470      
616.80    1531      
616.90    1551      
617.00    1501      
617.10    1544      
617.20    1521      
617.30    1610      
617.40    1545      
617.50    1697      
617.60    1588      
617.70    1623      
617.80    1633      
617.90    1681      
618.00    1717      
618.10    1728      
618.20    1663      
618.30    1695      
618.40    1723      
618.50    1761      
618.60    1773      
618.70    1771      
618.80    1853      
618.90    1806      
619.00    1843      
619.10    1830      
619.20    1820      
619.30    1884      
619.40    1905      
619.50    1969      
619.60    1891      
619.70    1882      
619.80    1946      
619.90    2052      
620.00    1931      
620.10    1998      
620.20    1937      
620.30    1956      
620.40    1960      
620.50    1980      
620.60    1980      
620.70    2009      
620.80    1936      
620.90    1980      
621.00    2065      
621.10    1966      
621.20    1983      
621.30    2001      
621.40    1989      
621.50    1945      
621.60    1958      
621.70    1921      
621.80    1931      
621.90    1902      
622.00    1906      
622.10    1931      
622.20    1945      
622.30    1929      
622.40    1939      
622.50    1920      
622.60    1858      
622.70    1924      
622.80    1980      
622.90    1930      
623.00    1946      
623.10    1943      
623.20    1954      
623.30    1899      
623.40    2027      
623.50    2095      
623.60    2007      
623.70    2027      
623.80    2023      
623.90    2038      
624.00    2079      
624.10    2116      
624.20    2083      
624.30    2178      
624.40    2097      
624.50    2091      
624.60    2079      
624.70    2090      
624.80    2160      
624.90    2230      
625.00    2231      
625.10    2259      
625.20    2334      
625.30    2288      
625.40    2309      
625.50    2287      
625.60    2361      
625.70    2438      
625.80    2385      
625.90    2433      
626.00    2408      
626.10    2474      
626.20    2457      
626.30    2549      
626.40    2535      
626.50    2446      
626.60    2498      
626.70    2475      
626.80    2494      
626.90    2547      
627.00    2555      
627.10    2565      
627.20    2548      
627.30    2506      
627.40    2581      
627.50    2477      
627.60    2485      
627.70    2514      
627.80    2455      
627.90    2461      
628.00    2548      
628.10    2432      
628.20    2407      
628.30    2427      
628.40    2348      
628.50    2374      
628.60    2330      
628.70    2303      
628.80    2358      
628.90    2304      
629.00    2271      
629.10    2311      
629.20    2283      
629.30    2282      
629.40    2315      
629.50    2266      
629.60    2265      
629.70    2203      
629.80    2352      
629.90    2197      
630.00    2256      
630.10    2261      
630.20    2221      
630.30    2231      
630.40    2296      
630.50    2257      
630.60    2270      
630.70    2296      
630.80    2218      
630.90    2364      
631.00    2262      
631.10    2304      
631.20    2324      
631.30    2320      
631.40    2379      
631.50    2400      
631.60    2459      
631.70    2487      
631.80    2420      
631.90    2413      
632.00    2387      
632.10    2392      
632.20    2438      
632.30    2397      
632.40    2472      
632.50    2467      
632.60    2483      
632.70    2514      
632.80    2464      
632.90    2444      
633.00    2541      
633.10    2410      
633.20    2458      
633.30    2438      
633.40    2399      
633.50    2486      
633.60    2355      
633.70    2383      
633.80    2326      
633.90    2351      
634.00    2313      
634.10    2248      
634.20    2234      
634.30    2218      
634.40    2198      
634.50    2176      
634.60    2097      
634.70    2128      
634.80    2075      
634.90    2068      
635.00    1997      
635.10    1985      
635.20    2029      
635.30    1951      
635.40    1902      
635.50    1972      
635.60    1837      
635.70    1801      
635.80    1858      
635.90    1825      
636.00    1806      
636.10    1758      
636.20    1742      
636.30    1744      
636.40    1863      
636.50    1742      
636.60    1713      
636.70    1722      
636.80    1675      
636.90    1737      
637.00    1618      
637.10    1633      
637.20    1659      
637.30    1670      
637.40    1590      
637.50    1664      
637.60    1624      
637.70    1659      
637.80    1538      
637.90    1651      
638.00    1619      
638.10    1589      
638.20    1616      
638.30    1601      
638.40    1527      
638.50    1548      
638.60    1526      
638.70    1490      
638.80    1512      
638.90    1488      
639.00    1449      
639.10    1521      
639.20    1400      
639.30    1467      
639.40    1378      
639.50    1400      
639.60    1380      
639.70    1381      
639.80    1392      
639.90    1359      
640.00    1319      
640.10    1304      
640.20    1368      
640.30    1343      
640.40    1275      
640.50    1289      
640.60    1347      
640.70    1216      
640.80    1228      
640.90    1333      
641.00    1338      
641.10    1269      
641.20    1207      
641.30    1215      
641.40    1187      
641.50    1131      
641.60    1189      
641.70    1167      
641.80    1143      
641.90    1161      
642.00    1153      
642.10    1314      
642.20    1151      
642.30    1139      
642.40    1220      
642.50    1111      
642.60    1129      
642.70    1164      
642.80    1169      
642.90    1118      
643.00    1141      
643.10    1159      
643.20    1122      
643.30    1107      
643.40    1166      
643.50    1113      
643.60    1112      
643.70    1101      
643.80    1099      
643.90    1042      
644.00    1042      
644.10    1094      
644.20    1026      
644.30    1057      
644.40    1019      
644.50    1034      
644.60    1063      
644.70    1058      
644.80    1032      
644.90    1012      
645.00    1017      
645.10    985       
645.20    1024      
645.30    963       
645.40    940       
645.50    942       
645.60    982       
645.70    941       
645.80    981       
645.90    959       
646.00    965       
646.10    1009      
646.20    927       
646.30    971       
646.40    974       
646.50    907       
646.60    923       
646.70    873       
646.80    913       
646.90    928       
647.00    892       
647.10    1001      
647.20    898       
647.30    945       
647.40    927       
647.50    958       
647.60    905       
647.70    909       
647.80    820       
647.90    895       
648.00    973       
648.10    937       
648.20    911       
648.30    951       
648.40    901       
648.50    874       
648.60    967       
648.70    892       
648.80    883       
648.90    925       
649.00    905       
649.10    942       
649.20    961       
649.30    909       
649.40    958       
649.50    878       
649.60    880       
649.70    898       
649.80    822       
649.90    885       
650.00    920       
