WaveLength	Dark	Reference	Samples	Energy	IrrCali	StrayLight
192.363	8009.835	8023.275	8019.075	0		
192.734	6044.038	6058.555	6053.023	0		
193.105	4847.009	4864.941	4858.425	0		
193.475	5118.775	5142.952	5133.389	0		
193.846	-65.517	-49.883	-48.241	0		
194.217	-54.981	-49.373	-46.711	0		
194.587	-48.524	-38.499	-44.333	0		
194.958	-39.859	-28.816	-38.046	0		
195.329	-29.665	-23.041	-31.251	0		
195.699	-24.909	-12.340	-36.687	0		
196.070	-27.457	-10.642	-37.367	0		
196.440	-21.682	-10.642	-29.212	0		
196.811	-10.982	-9.793	-21.059	0		
197.182	-10.132	-4.528	-13.925	0		
197.552	-3.849	2.094	-2.208	0		
197.923	8.716	4.811	16.300	0		
198.293	20.091	7.018	30.050	0		
198.663	21.789	14.489	37.688	0		
199.034	39.781	27.560	45.155	0		
199.404	49.454	31.804	60.936	0		
199.775	47.588	41.139	66.366	0		
200.145	38.763	49.624	69.080	0		
200.516	50.982	51.830	77.562	0		
200.886	48.776	51.491	84.347	0		
201.256	50.303	56.581	82.651	0		
201.627	57.090	69.137	82.482	0		
201.997	72.699	79.994	87.400	0		
202.367	77.280	80.503	83.330	0		
202.737	83.047	96.107	86.383	0		
203.108	86.100	95.937	96.729	0		
203.478	82.029	92.545	104.529	0		
203.848	79.315	89.832	110.973	0		
204.218	82.029	98.990	120.468	0		
204.588	76.601	90.849	112.499	0		
204.959	86.609	101.364	109.277	0		
205.329	94.241	101.025	108.430	0		
205.699	100.177	103.399	102.494	0		
206.069	93.054	98.820	98.764	0		
206.439	108.656	101.364	116.229	0		
206.809	97.124	100.516	120.129	0		
207.179	90.849	112.386	120.129	0		
207.549	95.598	116.286	122.672	0		
207.919	97.463	123.576	127.249	0		
208.289	97.294	115.777	125.554	0		
208.659	94.920	115.099	115.721	0		
209.029	90.680	103.060	118.772	0		
209.399	85.591	100.346	114.534	0		
209.769	81.690	101.364	117.246	0		
210.139	84.404	93.732	114.534	0		
210.509	89.492	100.007	116.060	0		
210.879	88.644	104.416	118.264	0		
211.249	89.662	99.668	112.329	0		
211.618	86.270	90.680	104.699	0		
211.988	74.565	105.773	100.799	0		
212.358	73.547	98.990	101.647	0		
212.728	81.351	97.803	92.489	0		
213.098	69.476	95.768	92.149	0		
213.467	78.637	102.212	93.167	0		
213.837	77.280	98.990	104.190	0		
214.207	72.699	98.651	95.541	0		
214.576	76.940	97.294	107.751	0		
214.946	83.725	105.603	113.686	0		
215.316	77.788	112.556	116.907	0		
215.685	75.414	104.416	111.312	0		
216.055	81.011	102.551	122.672	0		
216.425	75.074	110.351	116.568	0		
216.794	70.155	101.025	117.246	0		
217.164	66.592	86.270	118.264	0		
217.533	67.270	84.234	109.108	0		
217.903	68.797	93.054	101.307	0		
218.272	65.913	88.814	89.775	0		
218.642	66.422	90.680	84.178	0		
219.011	64.047	94.241	68.232	0		
219.381	76.092	100.855	69.928	0		
219.750	74.056	94.241	73.321	0		
220.120	80.842	94.241	74.848	0		
220.489	86.100	97.294	72.473	0		
220.858	89.323	99.159	80.446	0		
221.228	86.439	97.633	73.830	0		
221.597	87.966	101.703	78.241	0		
221.966	89.662	98.651	84.178	0		
222.336	86.270	96.276	88.249	0		
222.705	86.948	88.983	95.541	0		
223.074	82.538	101.703	99.442	0		
223.443	81.181	83.895	99.103	0		
223.813	78.128	87.118	103.682	0		
224.182	83.895	86.948	112.838	0		
224.551	81.351	97.803	108.430	0		
224.920	80.163	81.690	107.751	0		
225.289	86.439	91.528	95.541	0		
225.658	83.895	94.920	86.383	0		
226.027	79.146	91.019	80.276	0		
226.397	79.824	90.171	76.714	0		
226.766	77.788	94.750	75.187	0		
227.135	70.833	92.884	85.026	0		
227.504	70.324	86.270	87.231	0		
227.873	73.039	98.990	88.079	0		
228.242	74.396	101.703	86.213	0		
228.611	78.806	107.808	94.693	0		
228.980	74.735	117.981	85.026	0		
229.349	66.931	121.881	81.125	0		
229.717	64.047	110.860	86.044	0		
230.086	69.306	96.955	94.015	0		
230.455	59.296	86.948	91.980	0		
230.824	65.235	88.475	104.021	0		
231.193	78.128	84.404	108.599	0		
231.562	77.619	85.930	108.769	0		
231.931	75.583	101.873	101.477	0		
232.299	81.011	114.760	106.225	0		
232.668	75.244	101.873	108.090	0		
233.037	74.056	103.908	111.143	0		
233.406	74.226	107.299	109.108	0		
233.774	70.494	103.229	112.838	0		
234.143	68.967	86.948	104.869	0		
234.512	69.476	100.686	100.290	0		
234.880	71.342	99.668	97.577	0		
235.249	73.039	94.580	97.916	0		
235.617	77.449	91.358	95.881	0		
235.986	73.039	102.042	100.629	0		
236.355	70.494	93.902	101.816	0		
236.723	67.610	92.884	99.103	0		
237.092	77.110	99.159	94.185	0		
237.460	74.396	97.633	92.149	0		
237.829	87.118	95.259	86.383	0		
238.197	97.463	94.920	85.704	0		
238.566	96.107	103.738	83.330	0		
238.934	83.386	98.481	96.729	0		
239.302	82.708	101.703	103.003	0		
239.671	81.181	108.995	114.703	0		
240.039	73.547	109.164	118.942	0		
240.407	74.396	99.668	122.841	0		
240.776	83.725	102.551	109.277	0		
241.144	85.761	99.159	108.769	0		
241.512	78.976	94.580	99.781	0		
241.881	86.948	100.516	90.623	0		
242.249	87.796	98.990	92.319	0		
242.617	82.538	102.042	88.249	0		
242.985	83.725	105.434	88.588	0		
243.353	93.563	113.742	85.195	0		
243.722	91.358	104.586	93.506	0		
244.090	93.563	109.843	98.594	0		
244.458	87.457	99.838	108.260	0		
244.826	92.545	100.686	111.990	0		
245.194	86.439	90.849	115.551	0		
245.562	88.305	98.311	116.907	0		
245.930	85.930	94.920	114.195	0		
246.298	97.294	98.142	114.873	0		
246.666	86.100	92.036	109.616	0		
247.034	84.404	97.633	94.015	0		
247.402	79.994	96.785	81.803	0		
247.770	80.503	91.188	81.464	0		
248.138	73.378	93.902	69.928	0		
248.506	73.717	96.785	61.445	0		
248.874	71.172	84.574	81.803	0		
249.242	75.922	83.047	83.838	0		
249.610	81.011	85.930	79.259	0		
249.977	89.662	86.948	92.319	0		
250.345	90.001	85.252	98.764	0		
250.713	92.376	92.545	100.460	0		
251.081	90.001	92.206	109.616	0		
251.448	83.217	93.393	110.803	0		
251.816	74.396	93.054	104.699	0		
252.184	78.637	92.206	108.090	0		
252.551	74.226	85.591	108.260	0		
252.919	74.565	84.234	110.803	0		
253.287	70.155	90.680	111.482	0		
253.654	77.110	88.983	106.734	0		
254.022	83.556	90.171	100.968	0		
254.390	92.884	95.598	90.623	0		
254.757	88.135	100.007	83.838	0		
255.125	89.492	95.937	85.026	0		
255.492	85.591	102.212	86.722	0		
255.860	82.199	98.990	88.249	0		
256.227	78.467	94.072	92.149	0		
256.595	89.492	87.627	87.061	0		
256.962	95.598	87.627	89.605	0		
257.329	101.873	85.761	94.693	0		
257.697	104.416	88.983	94.185	0		
258.064	103.399	90.001	94.185	0		
258.431	95.428	91.867	105.208	0		
258.799	95.428	87.966	100.629	0		
259.166	84.913	84.234	91.810	0		
259.533	79.315	84.913	97.407	0		
259.901	78.297	92.545	98.255	0		
260.268	74.905	102.551	89.945	0		
260.635	77.449	105.603	99.442	0		
261.002	78.637	107.638	105.886	0		
261.369	82.029	106.282	100.629	0		
261.737	87.966	100.686	97.237	0		
262.104	87.287	88.135	105.716	0		
262.471	79.315	92.545	103.003	0		
262.838	82.708	97.294	106.564	0		
263.205	81.690	103.060	115.042	0		
263.572	76.262	110.860	124.706	0		
263.939	79.146	119.846	118.942	0		
264.306	84.065	121.033	110.803	0		
264.673	77.788	112.895	109.786	0		
265.040	66.252	111.030	98.255	0		
265.407	74.735	112.725	92.319	0		
265.774	76.601	108.825	90.453	0		
266.141	64.386	116.794	94.693	0		
266.508	68.967	120.355	101.647	0		
266.874	80.672	121.542	97.746	0		
267.241	79.654	115.608	100.968	0		
267.608	82.199	125.271	100.120	0		
267.975	92.206	108.825	103.512	0		
268.342	94.580	111.708	106.395	0		
268.708	88.475	109.503	116.568	0		
269.075	90.340	112.047	108.769	0		
269.442	87.457	95.768	112.499	0		
269.808	90.849	97.294	106.734	0		
270.175	91.528	91.528	97.237	0		
270.542	95.089	87.118	93.676	0		
270.908	85.761	80.333	97.068	0		
271.275	87.796	82.029	102.834	0		
271.641	86.609	83.895	101.138	0		
272.008	81.351	82.877	91.132	0		
272.375	89.153	79.994	90.284	0		
272.741	94.580	86.948	83.330	0		
273.107	97.124	93.224	79.937	0		
273.474	96.276	94.580	85.026	0		
273.840	94.241	92.884	100.460	0		
274.207	95.937	107.130	102.325	0		
274.573	92.715	100.177	105.886	0		
274.940	86.439	90.171	101.307	0		
275.306	91.358	86.439	98.933	0		
275.672	97.633	91.697	96.729	0		
276.039	95.428	89.832	94.863	0		
276.405	97.294	97.124	99.103	0		
276.771	91.019	98.990	100.290	0		
277.137	90.510	108.995	97.237	0		
277.504	89.662	111.708	90.114	0		
277.870	78.128	108.995	93.167	0		
278.236	77.619	100.686	104.869	0		
278.602	92.545	112.047	107.073	0		
278.968	95.259	110.182	111.821	0		
279.334	92.036	104.077	117.077	0		
279.700	99.499	103.568	114.195	0		
280.066	101.703	111.708	101.307	0		
280.432	95.089	107.638	98.594	0		
280.798	88.983	108.995	99.612	0		
281.164	92.206	107.130	99.951	0		
281.530	87.457	109.503	106.225	0		
281.896	83.556	102.890	112.499	0		
282.262	86.609	105.434	107.582	0		
282.628	82.029	107.130	103.682	0		
282.994	81.181	110.351	100.629	0		
283.360	86.779	104.247	100.968	0		
283.726	87.627	101.364	95.033	0		
284.092	87.966	98.651	97.407	0		
284.457	96.785	89.662	96.050	0		
284.823	95.768	91.528	91.301	0		
285.189	95.259	88.305	87.061	0		
285.555	90.171	105.434	86.213	0		
285.920	95.259	114.082	86.722	0		
286.286	93.732	118.998	92.149	0		
286.652	93.732	116.964	102.494	0		
287.017	92.715	120.694	107.243	0		
287.383	97.124	106.451	107.921	0		
287.749	86.948	96.107	110.295	0		
288.114	87.457	95.089	112.160	0		
288.480	89.323	98.820	114.195	0		
288.845	92.715	99.159	115.042	0		
289.211	99.499	93.732	116.060	0		
289.576	106.621	93.732	121.655	0		
289.942	107.130	92.715	120.807	0		
290.307	104.077	94.241	109.277	0		
290.672	98.481	103.908	106.395	0		
291.038	97.463	104.925	110.464	0		
291.403	94.580	110.182	107.582	0		
291.768	89.492	111.538	100.629	0		
292.134	97.463	112.386	98.764	0		
292.499	95.937	106.790	101.477	0		
292.864	99.329	117.133	101.647	0		
293.230	97.124	119.677	99.781	0		
293.595	98.481	118.490	96.898	0		
293.960	98.481	113.403	109.447	0		
294.325	92.884	107.469	97.237	0		
294.690	88.135	104.077	88.757	0		
295.055	91.188	97.972	93.506	0		
295.421	97.972	101.025	106.225	0		
295.786	95.259	104.247	100.629	0		
296.151	105.264	114.251	114.873	0		
296.516	101.194	109.503	119.451	0		
296.881	98.311	111.369	113.516	0		
297.246	91.867	104.416	112.838	0		
297.611	92.715	100.007	111.312	0		
297.976	100.007	94.072	100.460	0		
298.341	109.673	95.089	101.816	0		
298.705	111.538	93.224	106.225	0		
299.070	108.995	100.516	96.898	0		
299.435	101.703	108.316	91.810	0		
299.800	97.803	107.299	98.933	0		
300.165	89.832	105.773	95.033	0.113965188127001		
300.530	87.966	108.147	91.301	0.0401361106971976		
300.894	97.972	110.860	99.781	0.016980172870916		
301.259	100.346	110.521	101.138	0.00636443864089481		
301.624	95.768	117.642	98.764	0.0295844051680688		
301.988	96.616	125.441	97.068	0.0033537008089481		
302.353	93.902	117.812	106.225	0.0836722620544961		
302.718	84.404	114.590	111.482	0.183127146919828		
303.082	83.725	114.251	121.485	0.324310178996594		
303.447	81.520	113.912	127.419	0.526686952465449		
303.811	73.547	115.777	130.809	0.827852899863981		
304.176	73.887	124.763	119.451	0.341834378040057		
304.541	81.860	126.458	104.529	0.169106837518976		
304.905	87.966	118.320	101.647	0.114833753729119		
305.270	89.492	116.116	93.676	0.0427140851632053		
305.634	90.171	119.168	91.980	0.0178893908509848		
305.998	95.089	119.168	94.693	-0.00436397374165979		
306.363	84.913	114.421	99.951	0.133961201484668		
306.727	79.994	115.268	105.716	0.295557413875837		
307.091	89.662	111.708	105.208	0.307740440181728		
307.456	105.434	106.112	108.938	0.0602984065190326		
307.820	101.703	108.316	107.751	0.0673974870328543		
308.184	104.756	108.486	103.512	-0.00890529428696058		
308.549	107.638	118.490	99.612	-0.0544747682750069		
308.913	99.159	123.067	92.489	-0.0540957650595163		
309.277	90.001	124.085	95.881	0.0509133317715527		
309.641	92.036	121.881	94.693	0.0170881448447696		
310.005	90.340	117.303	96.559	0.0401106855419638		
310.370	99.159	114.929	91.810	-0.0479497834285		
310.734	104.247	117.133	103.682	-0.00472135367248143		
311.098	104.756	120.355	99.442	-0.0474217526204187		
311.462	102.551	120.863	102.494	-0.0004141238757821		
311.826	107.299	133.069	109.108	0.0117020625473813		
312.190	97.803	136.120	104.699	0.0475985379622984		
312.554	99.329	130.866	103.173	0.0294573151509261		
312.918	98.481	135.273	103.682	0.0471861223445747		
313.282	102.381	138.663	103.342	0.0075875108272492		
313.646	104.416	132.561	99.103	-0.0402517398592337		
314.010	111.708	127.306	98.085	-0.105514236709149		
314.373	106.790	125.949	101.647	-0.0459012739144322		
314.737	105.095	114.251	96.898	-0.0931370129698937		
315.101	105.434	105.773	97.916	-0.0672374483512008		
315.465	110.521	101.873	99.781	-0.083566103488727		
315.829	100.855	105.943	105.208	0.0405830729679199		
316.192	100.007	101.025	100.460	0.00428367427003327		
316.556	98.481	99.838	111.143	0.195148494600148		
316.920	92.376	101.364	104.360	0.283943564532268		
317.283	82.368	108.486	102.664	0.272566562517587		
317.647	84.234	102.551	101.816	0.244057467786628		
318.011	83.386	104.416	93.845	0.160030169344258		
318.374	81.351	99.668	94.693	0.186635082656278		
318.738	78.128	108.656	105.716	0.44978182927446		
319.101	81.011	106.621	102.155	0.322683873688552		
319.465	82.877	112.047	111.143	0.339577316894591		
319.828	81.011	126.288	119.281	0.518032200380099		
320.192	83.217	140.019	119.959	0.57641303067419		
320.555	85.930	133.069	114.703	0.402311932845707		
320.919	83.556	131.713	113.516	0.350534828516768		
321.282	91.528	124.085	103.342	0.107962792796219		
321.646	92.884	111.708	101.307	0.0621834816667136		
322.009	99.668	107.469	95.541	-0.0304411526854674		
322.372	97.633	101.194	101.986	0.0350925593958263		
322.736	92.715	96.446	107.073	0.133213693955525		
323.099	81.011	102.721	113.008	0.394786190512759		
323.462	83.386	94.580	111.821	0.422848411204867		
323.825	73.887	96.446	108.430	0.473435012387917		
324.189	81.351	103.568	103.342	0.319378266864674		
324.552	88.135	110.012	98.933	0.161240617065942		
324.915	97.463	115.608	96.050	-0.0266641693856599		
325.278	98.481	130.526	97.916	-0.0103553199620785		
325.641	101.534	134.764	98.424	-0.0415658096852258		
326.004	95.768	127.475	104.190	0.0942518263918588		
326.367	92.715	117.642	103.512	0.140603274397943		
326.730	89.662	108.486	106.056	0.198392373785365		
327.093	90.001	101.194	115.551	0.302829598871023		
327.456	92.036	89.832	115.551	0.218115945922382		
327.819	93.563	101.194	108.260	0.127937340847429		
328.182	92.545	103.229	112.499	0.198727545480454		
328.545	93.224	98.481	106.225	0.158063781729636		
328.908	90.680	92.206	95.541	0.0624356542945777		
329.271	89.323	90.680	103.342	0.210772171132661		
329.634	85.082	85.252	104.190	0.251405199333673		
329.996	81.520	96.107	106.564	0.348270854092587		
330.359	75.753	105.603	105.208	0.370725981695345		
330.722	78.806	114.082	105.208	0.247727257639731		
331.085	72.699	120.694	100.120	0.293250754523584		
331.447	84.913	117.473	103.173	0.179730652639804		
331.810	84.913	113.064	103.512	0.191305093339265		
332.173	87.966	103.060	106.903	0.274479117252274		
332.535	81.690	102.551	110.803	0.532929031304963		
332.898	90.849	97.972	110.973	0.305501093178758		
333.260	89.323	100.346	101.307	0.228268575529908		
333.623	92.884	97.463	96.729	0.0634643537710846		
333.985	94.411	104.077	96.729	0.0455797218700287		
334.348	95.259	101.873	105.038	0.138982564425402		
334.710	98.142	100.346	111.482	0.171811780568316		
335.073	99.838	104.416	125.384	0.284081672613561		
335.435	104.247	102.721	127.758	0.321067729123462		
335.798	101.703	105.773	133.352	0.515168238409049		
336.160	102.551	108.486	121.315	0.275968398217112		
336.522	96.107	119.338	119.790	0.375866677804532		
336.885	87.287	122.220	111.143	0.614767728472378		
337.247	88.475	127.645	110.295	0.382640130589625		
337.609	93.393	130.018	101.816	0.132596749532216		
337.971	107.299	137.307	109.786	0.0301722476092797		
338.334	111.538	127.475	98.424	-0.144872189014725		
338.696	121.881	118.659	100.629	-0.225859667223739		
339.058	115.438	118.151	101.816	-0.133683740311984		
339.420	109.673	110.182	103.682	-0.0535072684019235		
339.782	93.054	96.276	96.389	0.0358467166803236		
340.144	92.376	103.738	96.729	0.049782910755601		
340.506	86.948	106.112	95.881	0.14097321564555		
340.868	95.937	98.481	101.307	0.0692265199706473		
341.230	101.534	96.955	108.769	0.0910612286439069		
341.592	108.316	105.434	111.821	0.0394722512801813		
341.954	104.925	98.651	114.025	0.105886520833847		
342.316	100.346	96.446	116.060	0.149065027639816		
342.678	91.697	102.381	118.772	0.270197307263304		
343.040	92.376	101.703	113.008	0.211361467698503		
343.402	91.528	105.095	114.025	0.21669939734167		
343.764	94.580	109.503	111.143	0.163630263581259		
344.126	95.598	115.099	104.190	0.0842239796449859		
344.487	102.721	110.860	93.167	-0.0931023887150506		
344.849	93.902	120.355	91.471	-0.0300146478983393		
345.211	85.082	113.234	94.185	0.0996722434348514		
345.572	81.860	110.351	98.424	0.161939020940398		
345.934	83.386	108.486	106.734	0.286253965229351		
346.296	79.994	114.421	110.973	0.337927376102403		
346.657	76.771	101.025	113.516	0.410442803186239		
347.019	83.047	99.838	104.869	0.235280583051538		
347.380	82.877	101.873	106.395	0.203857177710645		
347.742	82.538	107.469	103.682	0.182884195309252		
348.104	89.832	109.843	102.155	0.0928201055563555		
348.465	100.516	118.490	103.173	0.0184989764720438		
348.826	100.686	123.067	107.243	0.0470936157629724		
349.188	99.159	132.222	104.869	0.0410952816964313		
349.549	90.849	124.254	107.243	0.124859519966416		
349.911	87.796	120.694	103.342	0.115950907721619		
350.272	84.065	131.544	99.951	0.119436310544211		
350.633	84.743	133.239	100.629	0.141659910907738		
350.995	97.463	127.984	104.190	0.0652560299023549		
351.356	103.399	127.814	98.085	-0.0546047921938618		
351.717	100.855	129.679	94.693	-0.0649361166034929		
352.078	101.534	121.033	99.272	-0.0206542325841657		
352.440	104.586	120.185	101.138	-0.0323170199960734		
352.801	94.072	118.151	103.682	0.0911844089997514		
353.162	91.188	118.490	100.968	0.0903808136176224		
353.523	90.340	116.286	115.890	0.197046569230766		
353.884	88.814	109.843	126.401	0.282856959065873		
354.245	79.824	107.638	131.318	0.356518507647821		
354.606	84.234	120.694	133.013	0.328229801288207		
354.967	90.849	122.220	131.148	0.269526661324345		
355.328	95.598	124.932	121.824	0.178047333195373		
355.689	99.329	124.593	109.956	0.0680574345662151		
356.050	109.843	123.745	106.395	-0.0236336109053538		
356.411	105.095	110.351	107.243	0.0143054814706635		
356.772	101.703	109.503	110.125	0.0619469818041741		
357.133	100.855	105.264	106.395	0.0386059335250015		
357.493	96.276	106.112	106.734	0.0707584961389807		
357.854	94.920	113.234	103.173	0.0564593599123715		
358.215	91.358	112.556	94.863	0.0261418411543703		
358.576	101.703	109.503	106.225	0.0341721155514994		
358.936	101.703	115.099	111.651	0.0723720605425889		
359.297	101.534	117.981	116.399	0.0996318249107712		
359.658	92.545	116.794	108.090	0.101880638583556		
360.018	97.294	115.268	103.173	0.0387982196825615		
360.379	87.287	124.254	97.746	0.0640954608263782		
360.739	81.351	120.016	100.799	0.11366330251707		
361.100	92.376	115.099	90.453	-0.0114286961655831		
361.461	94.580	108.486	98.085	0.0217492438705759		
361.821	92.884	112.047	111.312	0.111422361549819		
362.181	91.358	108.147	105.038	0.0840733939587204		
362.542	95.259	105.603	104.190	0.0549795005540643		
362.902	81.860	106.790	106.395	0.151840555067355		
363.263	86.779	109.334	109.447	0.142765938212689		
363.623	95.598	104.077	96.389	0.00491615726614863		
363.983	99.838	95.937	105.716	0.0359714454289671		
364.344	97.972	98.820	111.990	0.0914621646967354		
364.704	102.042	101.534	116.060	0.0979764129729663		
365.064	105.943	94.241	112.499	0.0439895938448021		
365.424	106.112	96.616	118.603	0.0903017796776897		
365.785	100.516	104.247	121.994	0.154730003595463		
366.145	98.820	97.294	110.464	0.0840100769584147		
366.505	97.633	102.551	107.921	0.0765037177344254		
366.865	86.948	109.503	112.499	0.192117162653873		
367.225	77.958	106.451	115.890	0.284354648094946		
367.585	85.930	109.843	104.021	0.135476635815397		
367.945	86.948	114.421	106.564	0.139633337797202		
368.305	86.948	113.403	102.834	0.110736169390863		
368.665	93.393	110.351	104.190	0.0763347871087355		
369.025	93.393	117.642	98.933	0.0379539016634654		
369.385	87.457	115.947	99.442	0.076990552027915		
369.745	91.358	116.625	102.664	0.0708017719603042		
370.105	88.475	110.012	101.816	0.0836303597057882		
370.464	83.725	113.234	103.851	0.127134217978295		
370.824	82.199	107.977	104.869	0.142347793184821		
371.184	82.877	101.534	109.108	0.154463085816996		
371.544	77.619	106.621	109.277	0.18282773113178		
371.904	78.637	109.673	108.938	0.174016199424956		
372.263	86.609	109.334	102.325	0.0890453576184595		
372.623	92.206	109.673	103.851	0.0710264951903534		
372.983	101.703	116.794	99.103	-0.0161815166955004		
373.342	101.025	111.030	103.851	0.0176034929197783		
373.702	106.621	110.860	107.751	0.00732428102937573		
374.061	102.890	115.099	113.516	0.069300179401845		
374.421	104.586	113.234	113.516	0.0609800518832424		
374.780	87.287	113.742	117.755	0.205601264694086		
375.140	88.135	121.881	113.855	0.168169513732072		
375.499	78.806	121.881	123.859	0.280622289562342		
375.859	76.431	112.386	115.381	0.24214950259461		
376.218	67.440	121.202	118.942	0.308339151459932		
376.577	71.681	117.812	124.706	0.305874244086335		
376.937	74.565	115.438	127.080	0.295082736655599		
377.296	84.913	112.895	122.841	0.217386367938336		
377.655	90.680	114.251	120.807	0.17450597479196		
378.014	102.042	113.403	118.094	0.0907017658359257		
378.374	104.077	123.576	119.111	0.0818658236772043		
378.733	100.855	124.424	118.264	0.0963828929365383		
379.092	94.750	130.357	114.873	0.116131070473483		
379.451	93.732	128.323	120.637	0.154488733870999		
379.810	83.217	126.967	122.502	0.231269985106454		
380.169	80.163	115.438	115.381	0.198151025623158		
380.528	87.287	103.738	115.381	0.163535845152136		
380.887	91.019	96.616	115.721	0.148629678022998		
381.246	91.019	104.586	112.329	0.129354313128374		
381.605	92.376	104.077	110.464	0.110197269667892		
381.964	101.703	105.434	112.160	0.0623612844205723		
382.323	95.089	116.455	104.190	0.0530036601777534		
382.682	94.241	125.610	106.734	0.0731162727285812		
383.041	91.697	126.119	116.060	0.139012061854763		
383.400	95.768	123.915	119.620	0.133695084495038		
383.758	94.241	134.764	124.028	0.161136759285628		
384.117	92.206	126.627	126.910	0.186489553037898		
384.476	88.305	120.863	126.571	0.208638749030451		
384.835	90.171	124.932	123.859	0.178886152464836		
385.193	89.153	127.984	120.637	0.167030648159473		
385.552	93.054	120.524	120.129	0.152661080679566		
385.911	88.644	125.780	121.994	0.184481966562594		
386.269	91.697	128.323	123.859	0.185588193035033		
386.628	94.580	117.133	121.994	0.157964255177688		
386.986	100.346	117.133	125.045	0.147410788829316		
387.345	98.820	110.351	116.568	0.105790812422612		
387.703	110.351	114.590	119.620	0.0561685180345567		
388.062	110.860	116.625	112.669	0.0103802374053151		
388.420	103.908	118.320	113.347	0.0553060711387204		
388.778	105.603	114.590	113.177	0.0440606698708869		
389.137	102.381	120.355	117.586	0.0854486214428292		
389.495	103.229	113.234	116.229	0.0720586608174932		
389.853	103.060	111.369	119.111	0.090930590741087		
390.212	112.556	115.268	124.198	0.0667426095804864		
390.570	105.603	115.099	125.723	0.119548961012129		
390.928	101.873	111.877	123.180	0.126193848865452		
391.286	106.790	115.608	117.586	0.0643517446790314		
391.644	105.603	112.895	115.381	0.0581288686286278		
392.003	103.060	115.777	105.547	0.0151333405684111		
392.361	99.329	118.659	100.290	0.00571162477774362		
392.719	110.012	119.507	100.968	-0.053974842109403		
393.077	100.177	122.220	106.734	0.0386835087565584		
393.435	96.446	120.185	112.160	0.0950440559252516		
393.793	94.920	114.760	121.146	0.154214839831728		
394.151	101.025	113.403	131.657	0.184774183235278		
394.509	100.346	112.725	134.877	0.200428581489254		
394.867	100.007	112.725	134.708	0.203032685501965		
395.224	115.608	110.351	136.572	0.118138222099927		
395.582	109.843	112.895	134.369	0.135281855244568		
395.940	115.438	110.860	129.283	0.0760965069299435		
396.298	109.843	113.573	133.352	0.128708040202062		
396.656	104.416	105.943	142.166	0.206574300402585		
397.013	90.001	110.351	136.064	0.25843610811689		
397.371	92.545	109.843	139.623	0.260001182071689		
397.729	82.538	111.199	141.827	0.324737074755555		
398.086	82.199	109.503	138.945	0.307875823496799		
398.444	88.644	108.486	129.114	0.219542343016166		
398.801	93.563	112.216	129.961	0.203643966666499		
399.159	91.188	110.690	123.689	0.179787766546803		
399.516	89.832	111.877	120.976	0.166603272926346		
399.874	89.492	118.490	118.603	0.160312607017972		
400.231	85.252	122.728	124.876	0.221971344598231		
400.589	77.280	120.016	127.080	0.286644243549629		
400.946	80.503	126.288	122.672	0.239024092153369		
401.304	81.860	116.116	120.298	0.217778875433931		
401.661	73.208	112.047	135.047	0.362952948569895		
402.018	82.877	123.745	130.979	0.282386259891379		
402.375	85.422	129.509	136.233	0.296789912652668		
402.733	88.475	132.730	143.352	0.325051527640365		
403.090	90.001	142.731	148.776	0.342914099329333		
403.447	97.972	131.883	141.488	0.257943360394312		
403.804	85.930	125.102	150.640	0.373598753019959		
404.161	95.768	120.694	144.708	0.276205772662046		
404.518	95.768	113.912	145.047	0.285396383538851		
404.876	90.171	112.047	136.572	0.271266598390969		
405.233	90.001	121.372	134.708	0.25985370126615		
405.590	98.820	112.386	128.436	0.174353887812151		
405.947	90.680	112.216	123.689	0.193274923414422		
406.304	89.323	111.199	124.537	0.203428531315295		
406.660	93.563	105.603	121.146	0.158307588589082		
407.017	99.668	106.112	118.772	0.109221063304397		
407.374	92.376	108.316	111.482	0.108225975488864		
407.731	91.867	107.130	111.482	0.111738992115569		
408.088	86.779	106.451	108.260	0.124215372339015		
408.445	86.100	103.908	119.620	0.192724051595085		
408.801	80.333	100.855	120.468	0.237268052257668		
409.158	78.467	107.808	131.318	0.315145249764965		
409.515	88.475	112.386	132.335	0.257931987805751		
409.871	89.832	106.112	133.521	0.25634797348256		
410.228	93.732	123.237	123.519	0.172196820285864		
410.585	93.393	129.679	115.042	0.122957455366895		
410.941	104.756	134.425	113.855	0.0518365341750374		
411.298	96.785	123.915	117.586	0.117852087895654		
411.654	100.516	134.595	121.994	0.122164151583218		
412.011	102.721	123.915	134.538	0.185097852893435		
412.367	104.925	122.898	145.217	0.229105690206033		
412.723	106.112	118.829	141.657	0.203579783207055		
413.080	108.486	122.559	142.674	0.197147336620222		
413.436	106.790	124.763	141.149	0.195593842993516		
413.792	98.481	125.610	126.571	0.157517927302828		
414.149	99.329	112.047	119.451	0.110493741776675		
414.505	91.358	106.960	114.364	0.124518000476105		
414.861	86.100	106.621	110.973	0.135501586989296		
415.217	85.761	106.451	111.482	0.137985390271354		
415.574	93.732	107.299	120.807	0.144341821286509		
415.930	92.545	118.659	128.436	0.192061975350524		
416.286	95.768	120.863	138.437	0.231239863111116		
416.642	91.019	132.222	144.200	0.289810251608386		
416.998	89.323	125.441	146.234	0.306219522825398		
417.354	86.779	124.763	149.793	0.344411592035029		
417.710	83.217	119.338	146.572	0.346508609116468		
418.066	86.100	114.929	142.505	0.306617331048028		
418.422	95.089	103.229	145.556	0.275624191659633		
418.778	101.534	111.199	140.810	0.213775146316933		
419.133	98.142	113.912	141.149	0.234415557911972		
419.489	104.077	110.351	142.505	0.211701144890636		
419.845	101.364	121.881	141.827	0.218757765496953		
420.201	100.855	121.711	144.878	0.238074969011497		
420.557	97.294	112.556	142.674	0.247690386952705		
420.912	103.399	114.251	133.521	0.163190040866704		
421.268	98.820	118.829	139.115	0.222477201738591		
421.624	96.955	109.334	140.471	0.244541729208576		
421.979	101.025	113.234	130.470	0.164018225548897		
422.335	102.381	118.659	134.538	0.179663722121171		
422.690	101.873	114.760	144.878	0.242397694860069		
423.046	106.790	117.133	139.284	0.180076708696604		
423.401	107.638	123.237	137.589	0.165009848445805		
423.757	94.920	117.812	141.149	0.250348668461289		
424.112	96.955	116.286	136.911	0.214246177779117		
424.468	93.054	122.559	133.691	0.218961026539354		
424.823	89.323	123.406	137.589	0.261032201260565		
425.178	88.305	123.745	131.148	0.231101011724807		
425.534	96.616	125.271	125.893	0.15818571701711		
425.889	83.556	124.254	127.080	0.238510502566886		
426.244	80.333	113.912	136.064	0.305487012390477		
426.599	84.743	116.625	135.894	0.281238748592006		
426.954	91.528	106.112	144.200	0.292344904215902		
427.310	90.849	117.473	144.878	0.299713955430592		
427.665	100.516	121.372	152.335	0.288702377173205		
428.020	98.820	129.170	143.691	0.252089884200919		
428.375	91.528	123.406	139.793	0.269743880302387		
428.730	84.743	130.018	142.844	0.320987781937204		
429.085	86.100	119.507	137.928	0.28489551303435		
429.440	82.538	111.877	128.944	0.250740375179862		
429.795	90.849	113.573	126.232	0.193131972171855		
430.150	93.732	115.777	121.315	0.149174055493654		
430.504	94.750	112.386	119.111	0.130630912746928		
430.859	99.838	120.185	135.047	0.18773012665685		
431.214	104.077	122.389	145.556	0.223107103325216		
431.569	104.416	120.185	150.470	0.246573709255109		
431.924	98.820	125.610	150.132	0.275848069926007		
432.278	99.838	128.492	147.759	0.255717025891941		
432.633	99.668	126.288	142.505	0.226648582058118		
432.988	100.686	126.797	134.708	0.181028096091608		
433.342	96.785	134.086	128.436	0.166133485398053		
433.697	113.064	126.627	127.249	0.0739851260924532		
434.051	110.182	123.745	137.250	0.141850300558685		
434.406	106.621	120.355	147.928	0.215477698053979		
434.760	98.820	117.303	152.335	0.278290794380148		
435.115	100.346	107.977	150.809	0.262578047745493		
435.469	98.142	112.047	159.452	0.312078740215294		
435.823	103.568	111.538	149.793	0.238310595664345		
436.178	91.697	116.116	130.809	0.198848513994664		
436.532	102.381	127.136	130.131	0.140535828104863		
436.886	110.521	122.898	133.352	0.115994153906719		
437.241	100.007	116.794	134.538	0.175063916164637		
437.595	99.838	122.728	132.843	0.167677669470959		
437.949	113.742	131.205	142.335	0.146479337448524		
438.303	116.116	136.629	148.098	0.164002138006896		
438.657	113.234	143.239	156.063	0.223761220503467		
439.012	117.473	148.154	158.774	0.214150727967704		
439.366	112.556	158.322	156.232	0.223606951675408		
439.720	108.147	147.646	158.096	0.254916854049359		
440.074	97.803	142.222	154.877	0.292687263316024		
440.428	98.142	136.798	150.301	0.267413110616828		
440.782	103.399	140.527	150.979	0.243186748611501		
441.135	109.503	132.900	164.705	0.281899328988072		
441.489	118.998	139.341	152.674	0.171811739346284		
441.843	119.507	140.358	155.893	0.187392308060463		
442.197	116.286	152.730	151.657	0.181763743169078		
442.551	106.451	157.645	144.708	0.196597343800728		
442.905	102.381	157.983	140.640	0.196809936333268		
443.258	87.118	153.747	149.962	0.324167921196796		
443.612	86.948	150.019	147.081	0.307029643049667		
443.966	83.895	143.070	158.944	0.383955004233352		
444.319	88.644	129.340	163.349	0.377631113052723		
444.673	91.697	122.728	167.585	0.381799881368957		
445.026	107.130	114.760	166.908	0.298450641937689		
445.380	101.873	111.030	168.263	0.333409310197387		
445.733	105.603	117.981	158.266	0.262169287019964		
446.087	107.638	123.915	152.165	0.222471620090056		
446.440	95.598	130.866	153.013	0.284610117351568		
446.794	83.386	139.849	161.486	0.392501670261549		
447.147	90.849	134.595	160.299	0.352658679226464		
447.500	90.510	124.763	163.688	0.372977282675444		
447.854	85.422	130.187	167.247	0.415828952264333		
448.207	83.895	122.389	156.402	0.371343040739497		
448.560	84.574	132.222	153.521	0.352519874281303		
448.913	84.913	139.002	147.250	0.320105842281743		
449.266	85.082	146.460	147.250	0.316147476744813		
449.620	81.351	145.951	146.742	0.329288837251886		
449.973	90.680	147.985	154.368	0.317729527974371		
450.326	99.668	141.375	153.182	0.265642827170071		
450.679	93.054	137.646	156.063	0.313317759816118		
451.032	94.241	131.883	157.419	0.317065730841887		
451.385	95.089	129.170	157.249	0.311461943603		
451.738	89.662	133.408	156.063	0.332471551761095		
452.091	80.842	128.153	156.741	0.380411073838915		
452.443	92.715	130.526	167.077	0.371315298947755		
452.796	83.386	126.458	167.924	0.423430690318724		
453.149	92.715	123.237	173.516	0.403133953190004		
453.502	100.007	122.220	168.941	0.340883571850304		
453.855	105.095	119.338	168.602	0.317069253989169		
454.207	101.703	131.883	167.924	0.332500990536175		
454.560	112.047	139.171	168.094	0.281857275890686		
454.913	102.551	137.815	161.994	0.306246808244503		
455.265	104.756	147.646	168.941	0.332682530950936		
455.618	105.264	152.561	174.363	0.360768798967662		
455.970	100.346	140.188	167.585	0.355356512724884		
456.323	102.890	132.391	168.772	0.349454256818476		
456.675	104.925	134.764	177.751	0.386534571756615		
457.028	95.768	129.848	172.330	0.404407395688331		
457.380	90.849	123.067	179.615	0.459911994360334		
457.733	93.563	127.645	179.784	0.447630934612442		
458.085	84.404	137.985	179.445	0.494540496404815		
458.437	96.785	150.019	175.887	0.407499563026725		
458.790	103.568	145.782	179.276	0.389796047428633		
459.142	109.334	157.983	165.213	0.288464450229155		
459.494	99.499	157.645	163.858	0.333726530253954		
459.846	103.229	155.611	164.705	0.320584352759971		
460.198	93.393	152.222	172.160	0.406056125017433		
460.550	89.323	154.425	166.230	0.392951005328		
460.902	91.358	146.460	174.532	0.425847887291643		
461.255	93.393	146.460	178.937	0.435358900118181		
461.607	89.662	147.646	182.494	0.468612743323545		
461.959	83.386	150.866	182.156	0.496509591849692		
462.310	85.082	155.103	183.341	0.486980293104129		
462.662	79.485	164.253	187.915	0.538345198022666		
463.014	86.270	171.369	190.287	0.514993978254779		
463.366	82.708	172.047	191.472	0.535902598893723		
463.718	98.142	162.220	192.658	0.460875210244391		
464.070	100.516	159.678	193.166	0.450369878534114		
464.421	97.124	154.255	192.997	0.465026193784511		
464.773	92.206	152.561	189.778	0.478051612740218		
465.125	96.616	150.358	183.850	0.427296834994506		
465.476	86.948	158.153	184.188	0.473698592733079		
465.828	89.832	162.389	197.570	0.519747523863558		
466.180	93.563	167.303	186.052	0.442526262313355		
466.531	98.481	160.186	181.478	0.392847967859457		
466.883	97.803	167.642	183.850	0.404447075941065		
467.234	99.838	167.981	183.680	0.388657787704127		
467.586	95.937	159.678	179.784	0.382740314632584		
467.937	95.768	159.847	191.472	0.432733362556046		
468.288	97.463	163.745	203.667	0.476923005526324		
468.640	101.873	162.559	210.102	0.484959678392298		
468.991	98.142	153.577	210.780	0.503374048231028		
469.342	101.534	152.052	212.643	0.491328876061068		
469.694	102.721	148.154	207.223	0.462792174073822		
470.045	111.708	149.680	208.748	0.428839095250968		
470.396	105.095	152.561	205.869	0.440837317056153		
470.747	103.060	158.322	204.344	0.441123073665419		
471.098	101.025	167.642	200.280	0.42709343272578		
471.449	98.990	166.964	198.756	0.425476614694114		
471.800	95.259	165.270	195.876	0.427812555257367		
472.151	94.241	164.084	200.619	0.444248680231076		
472.502	100.516	170.692	205.869	0.434631498797547		
472.853	94.072	172.386	215.183	0.493767603072055		
473.204	103.738	177.807	215.860	0.450731457470703		
473.555	97.124	175.774	214.675	0.468039533269663		
473.906	98.481	177.977	217.553	0.469228239079477		
474.257	98.820	169.506	211.288	0.438402866888081		
474.607	114.590	165.439	207.223	0.359397210576345		
474.958	106.790	165.948	217.045	0.423314601569188		
475.309	104.586	171.369	219.077	0.43647907084454		
475.659	101.534	166.964	218.738	0.442344232649046		
476.010	99.499	175.774	216.029	0.435065054060073		
476.361	90.680	172.047	225.342	0.498318538290464		
476.711	87.627	173.403	230.760	0.527282754727799		
477.062	85.082	175.774	227.374	0.518017926001644		
477.412	85.761	178.485	220.601	0.487478871071618		
477.763	88.814	184.245	230.252	0.506976217764019		
478.113	91.358	196.610	231.268	0.498109659556078		
478.463	100.346	199.828	229.744	0.45816548518019		
478.814	105.773	210.328	244.641	0.490131640844265		
479.164	110.860	205.586	260.551	0.519633597690349		
479.514	109.334	192.037	254.796	0.497207896962951		
479.865	109.334	193.053	251.073	0.479530300632222		
480.215	96.276	189.327	248.195	0.508986632022223		
480.565	96.107	189.835	248.873	0.508100872446294		
480.915	97.463	206.603	239.901	0.47159506031358		
481.265	97.124	211.344	251.073	0.502300003598817		
481.615	95.428	211.683	247.857	0.493254643299074		
481.965	96.276	226.414	253.781	0.509131031610393		
482.315	95.428	219.642	252.088	0.502216055262628		
482.665	94.920	210.498	263.935	0.540888236219344		
483.015	97.294	217.948	267.320	0.53944428344473		
483.365	101.703	219.134	279.164	0.556336071766868		
483.715	107.130	220.149	281.871	0.548440984114123		
484.065	107.299	226.245	282.886	0.548287487073564		
484.415	111.030	227.261	274.596	0.506684999419091		
484.765	107.638	228.954	276.626	0.521410902846538		
485.114	102.890	226.583	273.242	0.520338220338914		
485.464	101.194	224.044	277.980	0.53939920169673		
485.814	99.329	220.827	282.379	0.557033570265766		
486.163	96.955	237.757	285.593	0.568076943778284		
486.513	97.124	243.174	279.503	0.547211084109634		
486.862	94.411	259.592	285.763	0.570990557676098		
487.212	99.838	263.653	279.841	0.535320342837606		
487.561	99.499	266.868	271.381	0.509179069536245		
487.911	96.785	260.945	271.042	0.514022559822132		
488.260	99.159	266.699	271.212	0.504819983445732		
488.610	95.598	262.638	271.719	0.515082972268091		
488.959	93.732	269.407	270.704	0.515977064735929		
489.308	98.481	273.468	282.886	0.536525687904369		
489.658	92.036	277.529	289.315	0.571166953058356		
490.007	87.966	273.806	298.281	0.608342724463587		
490.356	95.259	282.266	295.574	0.577509959442111		
490.705	93.563	277.698	296.251	0.582654222936481		
491.054	91.697	294.785	296.251	0.585431416726045		
491.403	99.499	300.029	289.992	0.543844360280075		
491.753	99.838	306.287	285.932	0.530316958751487		
492.102	96.616	295.123	285.086	0.534677171608807		
492.451	98.481	301.044	295.236	0.556157758292071		
492.799	101.364	292.755	297.773	0.553200474319781		
493.148	102.551	286.834	308.768	0.579332440666925		
493.497	111.199	287.342	314.349	0.569988745665745		
493.846	118.320	298.337	317.731	0.558262063811997		
494.195	116.964	295.631	312.827	0.547371867248507		
494.544	114.421	307.640	307.753	0.541495863129492		
494.893	108.316	325.059	306.062	0.552399241343202		
495.241	98.990	343.488	304.201	0.571222838735493		
495.590	85.252	354.476	307.246	0.618331930027967		
495.939	84.404	365.125	308.091	0.623345522377456		
496.287	77.280	358.364	314.856	0.659852264572967		
496.636	83.725	361.406	309.952	0.627649576934188		
496.984	93.393	357.012	305.047	0.586093415492336		
497.333	98.990	365.801	309.952	0.583871670960361		
497.681	96.616	370.702	315.533	0.60475848157362		
498.030	104.586	386.755	318.069	0.586608270964541		
498.378	102.721	398.244	320.099	0.596157521626285		
498.726	87.457	408.549	329.061	0.661626987696265		
499.075	86.270	410.407	330.414	0.666879384921807		
499.423	89.832	425.439	335.317	0.664587997582678		
499.771	86.948	432.532	341.572	0.688774443574441		
500.119	91.358	443.001	358.139	0.722208059558939		
500.468	102.551	448.235	357.632	0.689676634737944		
500.816	112.216	456.845	359.322	0.666017603597947		
501.164	110.012	466.805	356.279	0.659664759238333		
501.512	109.334	481.995	346.813	0.6341442205409		
501.860	110.521	479.632	339.713	0.613888058875973		
502.208	104.077	493.808	342.756	0.637129741253479		
502.556	91.528	508.656	340.896	0.663971691104702		
502.904	94.750	519.621	339.375	0.650744078299979		
503.252	97.124	525.356	341.911	0.648214943335318		
503.600	96.955	544.414	349.518	0.672957597228752		
503.947	99.329	550.991	346.644	0.660294996706114		
504.295	104.756	557.735	343.601	0.636601105467191		
504.643	105.773	568.526	350.363	0.65033672794205		
504.991	98.142	577.966	360.336	0.697363645376615		
505.338	99.668	590.439	357.294	0.685093988280482		
505.686	101.364	607.965	374.702	0.72733030489773		
506.034	107.130	622.792	372.843	0.703180313207548		
506.381	105.264	627.004	368.787	0.695352762681758		
506.729	111.708	638.796	368.956	0.676140315830383		
507.076	104.416	641.154	378.926	0.721488243920288		
507.424	103.060	647.723	380.785	0.726672462070309		
507.771	98.311	651.933	387.037	0.751557183419831		
508.118	92.545	670.962	400.722	0.801640125265167		
508.466	81.520	678.370	396.667	0.81666048442589		
508.813	81.011	690.491	391.261	0.801087160965016		
509.160	88.644	708.501	379.771	0.752495098386644		
509.508	94.241	727.349	384.164	0.747046621832877		
509.855	97.463	739.463	380.109	0.729588400522054		
510.202	105.773	752.752	390.078	0.736093424155246		
510.549	103.568	769.740	394.471	0.752002786299372		
510.896	94.241	780.671	407.648	0.811736871893826		
511.243	83.386	786.556	409.337	0.840066596812177		
511.590	81.690	786.051	414.911	0.858215159542208		
511.937	86.439	810.765	415.249	0.846293827579155		
512.284	83.386	836.143	409.675	0.836927478638378		
512.631	82.538	854.626	404.607	0.82393089196303		
512.978	82.538	884.358	405.959	0.826881036765991		
513.325	83.895	912.401	409.844	0.83090435559838		
513.672	85.422	925.328	409.506	0.830223043723081		
514.018	92.545	938.252	410.520	0.811335231535422		
514.365	93.393	966.445	412.378	0.81436683680543		
514.712	98.820	976.009	419.303	0.815508486837248		
515.059	96.446	993.287	418.458	0.817756671201539		
515.405	102.042	1014.251	418.627	0.802322154568801		
515.752	95.428	1026.827	429.942	0.844624426017781		
516.098	95.259	1038.396	433.320	0.852093249323032		
516.445	98.990	1062.701	433.489	0.845112149570818		
516.791	95.089	1077.952	437.035	0.859862453939715		
517.138	86.270	1108.277	442.776	0.895814505840957		
517.484	92.036	1127.204	445.984	0.889450677529956		
517.831	95.089	1130.720	443.451	0.873563965285419		
518.177	91.528	1145.624	454.257	0.912873452611187		
518.523	98.990	1164.208	441.932	0.861799535288291		
518.869	100.516	1176.093	443.620	0.858412170659045		
519.216	103.908	1192.662	437.710	0.835841998376754		
519.562	99.838	1212.910	444.971	0.862334083180883		
519.908	101.534	1231.479	437.879	0.83764463505029		
520.254	92.376	1248.875	458.308	0.911512162788532		
520.600	91.358	1262.922	461.009	0.920405036067628		
520.946	93.393	1291.010	467.761	0.931320232924303		
521.292	88.814	1324.939	474.175	0.957630064057764		
521.638	87.457	1342.984	477.213	0.96880442999096		
521.984	95.937	1366.872	461.516	0.911562439594046		
522.330	90.849	1381.401	457.633	0.914458103460134		
522.676	88.983	1394.259	456.451	0.917322455516688		
523.022	104.586	1404.277	454.426	0.87175412330491		
523.367	112.725	1431.654	454.088	0.850775477154494		
523.713	108.486	1463.193	465.061	0.890218836876196		
524.059	109.164	1493.888	482.952	0.932061473141747		
524.404	109.673	1534.242	480.926	0.923797559739627		
524.750	94.072	1571.913	482.614	0.968461551092219		
525.096	82.199	1596.407	490.039	1.01805870999849		
525.441	82.708	1612.233	484.639	1.00575070741703		
525.787	79.485	1625.558	473.331	0.988142084813782		
526.132	78.297	1626.058	477.888	1.00598664254697		
526.478	90.001	1633.052	475.694	0.973933319104166		
526.823	92.884	1658.862	467.255	0.94978908279892		
527.168	95.428	1681.835	474.344	0.965130386688025		
527.514	104.586	1715.952	466.411	0.921124900600325		
527.859	103.229	1754.047	474.851	0.948378715748304		
528.204	104.586	1769.347	485.314	0.972451353346736		
528.549	101.364	1791.795	504.044	1.03025866122645		
528.895	101.534	1821.716	505.900	1.03389041099004		
529.240	106.282	1845.812	517.878	1.05225679152657		
529.585	101.194	1860.932	523.107	1.07946495887962		
529.930	95.937	1893.654	529.179	1.10845113508442		
530.275	97.633	1909.430	517.372	1.07547570893185		
530.620	100.346	1917.899	509.443	1.05113135180255		
530.965	94.072	1946.120	511.805	1.07225931469246		
531.310	102.551	1973.338	497.970	1.01794349346436		
531.655	98.990	2006.686	488.689	1.004509846053		
531.999	102.551	2042.344	496.620	1.01706544684126		
532.344	103.738	2067.711	503.707	1.03656650475792		
532.689	98.481	2075.336	494.764	1.02622560807483		
533.034	93.563	2076.497	501.007	1.05532458599144		
533.378	94.072	2073.347	502.357	1.06194234102902		
533.723	93.393	2084.453	499.826	1.05946652749139		
534.068	85.422	2113.620	516.191	1.12387386359107		
534.412	91.019	2136.649	531.203	1.14965839195389		
534.757	82.538	2179.049	537.106	1.18373503771425		
535.101	80.333	2216.795	530.529	1.17689394636888		
535.446	82.029	2227.885	521.758	1.15000993363904		
535.790	87.966	2242.944	514.504	1.11598426785465		
536.135	92.884	2242.448	513.998	1.10228690343894		
536.479	95.089	2254.362	517.878	1.10751512184074		
536.823	102.042	2266.109	528.336	1.11775850373359		
537.167	96.616	2294.230	537.444	1.16316022981238		
537.512	97.633	2322.673	527.493	1.13153225222441		
537.856	93.563	2355.076	517.035	1.1167118109392		
538.200	97.294	2360.861	509.274	1.08792475102739		
538.544	95.259	2400.355	515.854	1.11289244489435		
538.888	98.481	2418.528	524.119	1.12694956722992		
539.232	94.072	2432.237	526.818	1.14626192791837		
539.576	92.376	2443.302	532.215	1.16285898468458		
539.920	97.803	2471.539	538.118	1.16719848681225		
540.264	99.668	2472.199	527.661	1.13749505695204		
540.608	102.381	2489.863	518.215	1.10678948573147		
540.952	105.603	2508.019	526.987	1.12287012310023		
541.296	108.486	2549.600	540.817	1.15611343227136		
541.639	102.551	2581.105	544.021	1.18089114739388		
541.983	96.785	2616.887	552.789	1.22236575686931		
542.327	95.089	2632.383	566.952	1.2690972479793		
542.671	100.007	2652.985	559.197	1.23455831813116		
543.014	100.855	2660.401	548.743	1.20648890551478		
543.358	95.598	2674.737	546.213	1.21532405993494		
543.701	91.358	2682.976	549.754	1.23726218996626		
544.045	88.814	2704.227	543.009	1.22992107813475		
544.388	83.386	2730.250	558.016	1.28564007789231		
544.732	86.100	2740.624	560.040	1.28270875888799		
545.075	88.983	2740.789	551.272	1.25065056928932		
545.418	101.025	2755.114	546.382	1.20537380910897		
545.762	104.756	2767.461	550.597	1.20860920906598		
546.105	109.164	2763.345	550.597	1.19594953873583		
546.448	109.503	2784.251	556.499	1.21228508505887		
546.791	111.369	2804.988	574.538	1.26052662190241		
547.135	106.960	2819.633	577.741	1.28278984310515		
547.478	96.955	2829.998	575.550	1.30578095678778		
547.821	93.732	2834.605	576.393	1.31728338445454		
548.164	92.036	2852.042	576.393	1.32033186444295		
548.507	98.820	2861.910	569.987	1.28787488766526		
548.850	98.820	2886.578	578.247	1.31054110464979		
549.193	93.393	2916.829	583.978	1.33952539502		
549.536	94.580	2947.072	587.686	1.35039110180021		
549.878	92.206	2956.110	599.652	1.39245755710511		
550.221	86.270	2979.113	601.337	1.41407221563785		
550.564	87.966	2989.134	598.304	1.40470793964335		
550.907	94.411	2999.811	601.674	1.39761003878958		
551.249	95.768	3010.651	600.157	1.39337101015616		
551.592	94.411	3031.343	588.529	1.36921851702182		
551.935	87.796	3044.971	603.696	1.42955864833622		
552.277	87.457	3057.284	604.707	1.43375713345301		
552.620	104.077	3077.967	609.931	1.40655713509379		
552.962	103.399	3089.620	601.169	1.38584593659702		
553.305	104.077	3104.718	600.157	1.38036092070346		
553.647	111.369	3112.265	576.224	1.29340881606449		
553.990	108.316	3106.851	573.864	1.29490581129723		
554.332	92.376	3083.876	554.307	1.2875108789734		
554.674	88.983	3090.441	562.569	1.32527396532822		
555.016	86.948	3090.112	569.312	1.3507012512297		
555.359	88.644	3095.036	581.787	1.38457251585374		
555.701	89.153	3096.513	581.618	1.38845724958307		
556.043	93.563	3113.250	584.146	1.38948118313531		
556.385	102.042	3125.719	584.821	1.37195938060885		
556.727	96.446	3118.500	581.618	1.3803878728767		
557.069	98.990	3124.571	579.258	1.36637291755759		
557.411	102.890	3133.594	578.247	1.35386942617149		
557.753	97.633	3151.145	591.057	1.40339567477486		
558.095	93.902	3145.897	590.720	1.41434536325694		
558.437	104.586	3161.806	593.079	1.39093270832573		
558.779	106.282	3161.806	591.394	1.38372989464737		
559.120	101.194	3157.706	596.113	1.41210195027337		
559.462	106.621	3138.023	597.798	1.40370452676748		
559.804	106.960	3156.558	596.281	1.39869049318979		
560.146	109.503	3154.918	592.574	1.38519500769977		
560.487	106.451	3155.246	597.967	1.41203735115218		
560.829	115.099	3160.330	604.539	1.40461344924944		
561.170	108.825	3180.173	602.348	1.41749533141598		
561.512	99.838	3172.302	608.920	1.46672846164123		
561.853	90.849	3176.402	615.154	1.51202849600882		
562.195	90.340	3174.598	633.012	1.56847729037289		
562.536	88.644	3168.366	625.432	1.55568819554465		
562.877	96.276	3146.553	624.421	1.53092220817023		
563.219	97.633	3149.341	632.844	1.55562386858449		
563.560	100.007	3152.458	638.908	1.56906735332765		
563.901	101.873	3164.594	630.317	1.54134467558104		
564.243	97.124	3178.533	640.761	1.59090274825367		
564.584	88.983	3190.339	655.919	1.65951294838034		
564.925	91.697	3191.979	655.750	1.6566676393915		
565.266	91.358	3187.060	651.709	1.65034011779467		
565.607	88.644	3184.108	649.856	1.65986255950268		
565.948	87.966	3178.041	645.814	1.65457733090714		
566.289	88.135	3171.810	640.256	1.64165900778254		
566.630	89.662	3154.918	632.339	1.61650801597938		
566.971	83.386	3132.117	631.665	1.64193924078379		
567.311	81.011	3124.407	627.959	1.63894833548878		
567.652	79.485	3123.750	630.486	1.65732705741373		
567.993	87.118	3136.711	624.926	1.62060097357109		
568.334	85.591	3127.196	630.486	1.64832610960052		
568.674	96.107	3141.796	635.034	1.63291813074976		
569.015	102.042	3134.086	625.263	1.59065828731699		
569.356	104.416	3142.944	624.589	1.58332895472249		
569.696	101.194	3128.180	619.703	1.5840687996848		
570.037	103.908	3136.218	615.491	1.56638804600227		
570.377	102.381	3133.266	608.920	1.55385699351809		
570.718	96.616	3124.407	625.432	1.62419406971567		
571.058	90.849	3100.615	614.480	1.61059078787535		
571.398	90.680	3098.318	616.334	1.61845241168777		
571.739	90.680	3099.959	620.883	1.64177834562145		
572.079	84.065	3107.507	637.224	1.71509798039611		
572.419	82.877	3104.061	635.034	1.71319693723206		
572.759	81.860	3101.764	640.929	1.74013542142451		
573.099	81.351	3088.471	644.298	1.75301464648078		
573.440	77.449	3090.112	644.466	1.77136452049962		
573.780	69.646	3076.162	624.926	1.74003124105014		
574.120	76.431	3085.189	629.475	1.73445235507727		
574.460	85.422	3084.696	637.560	1.7398511622812		
574.800	90.171	3081.086	646.488	1.76015005321297		
575.140	88.475	3074.356	637.729	1.73932976046987		
575.479	102.212	3074.849	642.614	1.7185152739211		
575.819	108.825	3073.535	637.560	1.68589242130621		
576.159	105.434	3067.298	635.708	1.69059440793758		
576.499	100.516	3068.119	637.055	1.71093383780859		
576.838	102.042	3066.641	639.582	1.71331621372153		
577.178	101.194	3060.732	642.277	1.72521400938062		
577.518	93.732	3065.328	642.277	1.75394155788704		
577.857	98.481	3057.449	642.951	1.74206266028993		
578.197	109.503	3051.374	637.560	1.69466955082017		
578.536	115.777	3044.315	645.309	1.70633908314032		
578.876	112.725	3049.076	643.119	1.71635929307195		
579.215	112.386	3046.285	639.582	1.70992545154273		
579.555	107.469	3049.240	634.528	1.71366216422461		
579.894	92.884	3058.434	631.159	1.75182174816781		
580.233	78.467	3055.971	626.442	1.78763879366126		
580.573	85.591	3051.703	627.959	1.77286857723593		
580.912	81.690	3038.896	631.159	1.79888235440604		
581.251	83.386	3057.284	639.919	1.82267600128333		
581.590	87.457	3049.568	646.993	1.83678329514344		
581.929	90.001	3031.671	652.382	1.84965785294059		
582.268	84.574	3016.235	659.119	1.89389143597087		
582.607	86.439	3022.311	657.434	1.88406258237267		
582.946	86.948	2996.526	651.203	1.86268442409672		
583.285	89.153	2989.462	640.256	1.82296947761517		
583.624	101.025	2993.733	634.360	1.76922419404397		
583.963	101.194	2998.333	635.371	1.77232721749919		
584.302	104.756	3013.443	643.624	1.79113750615513		
584.640	110.012	3042.344	655.414	1.81910685824865		
584.979	113.403	3046.121	657.940	1.81983483736164		
585.318	109.164	3051.867	652.382	1.82010547781516		
585.657	110.690	3053.673	653.898	1.82276554032212		
585.995	106.621	3037.583	649.014	1.82097103443182		
586.334	104.586	3020.833	646.319	1.82542798214648		
586.672	101.534	3003.424	645.645	1.83979160654752		
587.011	98.990	2975.498	653.561	1.87784420136346		
587.349	97.124	2964.161	640.087	1.8463927799182		
587.688	99.159	2949.044	639.245	1.84272952091948		
588.026	89.323	2955.453	640.087	1.884084767797		
588.364	94.072	2966.626	641.771	1.87468958840896		
588.702	97.294	2982.070	640.087	1.85942807811499		
589.041	96.785	2972.377	644.803	1.87407530489248		
589.379	96.955	2963.997	641.940	1.86445559772191		
589.717	100.855	2958.082	640.929	1.84730230991062		
590.055	99.499	2960.875	649.014	1.87954286710711		
590.393	99.668	2958.082	656.424	1.90911354000205		
590.731	102.381	2960.711	662.318	1.92486441375613		
591.069	113.064	2958.410	670.737	1.9173408136068		
591.407	115.268	2946.743	668.212	1.90812942854241		
591.745	112.725	2955.288	665.686	1.91195749606068		
592.083	109.503	2959.725	653.730	1.88781474084859		
592.421	106.621	2965.476	653.224	1.89236294617173		
592.759	97.463	2976.813	641.098	1.88270783089179		
593.096	95.089	2974.677	627.116	1.84652643905039		
593.434	99.668	2962.025	621.725	1.8206792018478		
593.772	102.890	2969.419	622.231	1.81739701861409		
594.109	95.598	2957.260	621.220	1.84150285738721		
594.447	85.761	2966.626	626.611	1.89624632963927		
594.784	90.680	2970.405	637.729	1.9279368090064		
595.122	85.252	2970.734	638.403	1.95518645967103		
595.459	78.467	2960.711	651.877	2.02882141168273		
595.797	81.351	2971.884	645.140	1.99357877994008		
596.134	89.323	2964.161	649.351	1.97919410932373		
596.471	79.994	2964.490	653.561	2.02917611186325		
596.809	81.520	2967.448	664.844	2.06497118093614		
597.146	92.206	2958.246	662.150	2.01939473307951		
597.483	94.750	2953.809	676.799	2.06255843215135		
597.820	95.259	2952.495	674.441	2.06070008058271		
598.157	95.259	2964.983	667.538	2.03872645990447		
598.494	102.381	2952.330	659.624	1.98740199425287		
598.831	91.697	2957.918	661.476	2.03849739274536		
599.168	91.188	2961.204	671.579	2.08197780579572		
599.505	96.276	2954.467	676.125	2.08398580156362		
599.842	96.955	2950.851	682.523	2.10604430131903		
600.179	89.153	2959.561	673.431	2.10362637658151		
600.516	100.686	2966.462	667.370	2.04968785268037		
600.853	102.381	2953.316	649.351	1.98407915197882		
601.189	99.499	2948.551	649.014	1.99330397718453		
601.526	106.282	2938.033	639.413	1.93358119850826		
601.863	100.516	2941.977	644.298	1.97413656671773		
602.199	95.937	2931.623	646.151	2.00187966364248		
602.536	90.849	2937.047	644.803	2.01737264115934		
602.872	93.393	2934.088	648.172	2.02053914564189		
603.209	92.376	2922.747	652.045	2.04314895694126		
603.545	99.838	2894.142	655.414	2.03149506680334		
603.882	105.603	2900.718	665.854	2.05915408317571		
604.218	120.355	2884.441	668.548	2.01667869970973		
604.554	121.202	2895.950	668.717	2.01877925619495		
604.891	120.524	2902.198	675.283	2.04834757478791		
605.227	105.943	2915.350	678.819	2.12397046215139		
605.563	97.463	2918.473	675.957	2.14647420636231		
605.899	88.814	2936.718	677.640	2.19278237666773		
606.235	80.163	2917.980	674.273	2.21410829342291		
606.571	85.591	2906.637	671.748	2.19047371244692		
606.907	98.651	2897.266	675.957	2.15996186704941		
607.243	90.340	2882.961	671.242	2.17898721569729		
607.579	89.492	2875.067	668.380	2.17573856183957		
607.915	93.054	2876.054	673.263	2.18380686387896		
608.251	83.217	2877.698	684.711	2.26944826505014		
608.587	90.001	2887.565	675.788	2.21370308846442		
608.922	97.294	2888.551	677.135	2.19827613859922		
609.258	101.534	2891.511	680.671	2.2035564497531		
609.594	102.381	2907.952	676.630	2.19528169513358		
609.929	119.338	2903.678	662.150	2.07314652107042		
610.265	118.490	2890.524	673.263	2.1329104716487		
610.601	129.170	2868.654	665.012	2.06070879923985		
610.936	128.831	2836.908	655.919	2.03812636794404		
611.271	127.984	2811.241	655.750	2.04168830122787		
611.607	116.116	2806.798	660.802	2.11211515980939		
611.942	116.625	2809.102	642.108	2.03960410323417		
612.278	105.095	2808.937	643.119	2.0967017350423		
612.613	106.282	2831.150	649.014	2.11602729152286		
612.948	100.346	2823.252	642.445	2.12594490583715		
613.283	101.534	2804.659	640.256	2.10981162880176		
613.618	94.411	2796.101	645.982	2.16762555803912		
613.954	98.651	2791.657	637.560	2.12562017846008		
614.289	98.481	2765.321	634.865	2.12035929923471		
614.624	113.234	2764.498	634.865	2.06674227716676		
614.959	114.590	2754.949	622.231	2.01932517722617		
615.294	118.998	2735.025	626.274	2.01913449269201		
615.628	130.018	2726.462	640.087	2.03640667244734		
615.963	127.306	2719.874	636.213	2.04200432744798		
616.298	119.338	2715.757	637.392	2.08050262051327		
616.633	113.742	2722.180	648.003	2.15366805886652		
616.968	109.334	2729.756	644.635	2.16494270781578		
617.302	98.651	2746.881	647.667	2.22393748476515		
617.637	97.633	2758.242	648.845	2.24069873653381		
617.972	94.580	2740.130	652.045	2.26898032827615		
618.306	95.937	2737.166	652.382	2.26949257669117		
618.641	102.551	2729.591	656.256	2.25969029197281		
618.975	98.481	2717.074	649.351	2.24761391084862		
619.309	99.838	2698.297	661.476	2.29215453886496		
619.644	100.516	2699.450	662.150	2.2867825805009		
619.978	113.403	2680.339	661.308	2.22866078299309		
620.312	110.351	2671.771	657.434	2.22854952525831		
620.647	118.320	2676.550	657.266	2.19071578798481		
620.981	116.964	2690.719	652.045	2.17894924650673		
621.315	118.829	2690.554	652.551	2.17491594720023		
621.649	106.790	2710.321	655.245	2.23444767746549		
621.983	104.077	2701.097	657.266	2.26045724361364		
622.317	98.311	2691.378	668.885	2.33785449614254		
622.651	101.703	2676.715	665.686	2.31393695914589		
622.985	98.990	2682.811	671.579	2.35321521159953		
623.319	103.908	2668.311	671.411	2.33228457789113		
623.653	102.551	2683.305	676.630	2.36017813964805		
623.987	102.721	2667.487	669.727	2.33179920354769		
624.321	96.616	2664.686	678.987	2.3874380746276		
624.654	94.411	2656.117	665.349	2.33814127085339		
624.988	87.796	2667.322	661.813	2.34741420870002		
625.322	81.011	2663.862	657.434	2.35454961532299		
625.655	78.806	2678.692	655.414	2.35733622927476		
625.989	87.796	2682.152	659.287	2.33357017912543		
626.322	92.206	2678.362	659.792	2.31579208928943		
626.656	95.768	2673.419	674.778	2.36534862337366		
626.989	115.099	2681.657	680.334	2.31052735881221		
627.323	124.085	2680.834	686.900	2.29865168681032		
627.656	113.573	2685.776	679.324	2.31232338163212		
627.989	108.486	2698.297	693.128	2.39133423520897		
628.322	100.686	2705.709	688.247	2.40686131407561		
628.656	91.019	2703.403	683.365	2.42922156231307		
628.989	86.270	2707.027	678.651	2.43259453281487		
629.322	84.404	2712.957	682.860	2.45656812674253		
629.655	89.832	2706.533	679.997	2.43292525790669		
629.988	99.499	2676.220	671.748	2.35920922680657		
630.321	95.937	2666.828	676.125	2.38809071091278		
630.654	91.019	2662.873	679.829	2.42647173173258		
630.987	95.428	2674.243	678.819	2.40955702455043		
631.320	92.036	2694.508	685.721	2.45638784333178		
631.652	83.556	2712.627	705.079	2.57679228849401		
631.985	82.877	2709.498	697.505	2.54642406020935		
632.318	83.556	2719.216	695.822	2.54435755698894		
632.651	88.135	2706.204	693.128	2.52456410318589		
632.983	88.983	2692.037	688.078	2.51006935540529		
633.316	93.054	2702.250	660.297	2.37600654746018		
633.648	97.124	2725.309	669.895	2.40244577643455		
633.981	103.568	2722.509	663.665	2.35544216627215		
634.313	97.294	2733.379	661.813	2.37964198754225		
634.646	88.475	2731.732	671.579	2.4636615338654		
634.978	89.662	2717.898	690.603	2.54311668325542		
635.310	88.814	2692.860	682.860	2.51161346206827		
635.643	82.538	2682.646	686.900	2.56829221331736		
635.975	85.252	2673.419	695.317	2.59883350346667		
636.307	100.346	2668.641	693.970	2.53510312184506		
636.639	100.686	2673.749	689.762	2.52272215689639		
636.971	95.089	2673.749	698.178	2.59127693191068		
637.303	91.867	2661.061	693.970	2.59281873615323		
637.635	99.499	2649.195	688.415	2.54417602858437		
637.967	97.463	2640.789	680.671	2.51611738610802		
638.299	97.463	2640.460	678.314	2.5169662582143		
638.631	87.966	2636.339	684.206	2.5870441449767		
638.963	99.838	2625.294	689.762	2.56817447486755		
639.295	87.627	2612.600	691.613	2.63530773293143		
639.626	80.672	2616.887	691.613	2.66800606042027		
639.958	82.538	2620.019	696.495	2.69193188836764		
640.290	98.651	2628.097	686.226	2.59315876626542		
640.621	101.703	2636.504	688.247	2.59309935039421		
640.953	107.638	2645.899	681.849	2.54106809760858		
641.284	111.708	2647.547	678.146	2.50802580758323		
641.616	112.556	2639.306	672.758	2.4825862544586		
641.947	116.286	2636.998	679.156	2.50408985118449		
642.279	108.995	2630.570	680.166	2.5415536925209		
642.610	110.860	2626.778	679.661	2.53177064480081		
642.941	103.060	2609.138	677.472	2.55962025377285		
643.272	102.212	2621.997	665.181	2.51950191366058		
643.604	97.463	2639.471	672.421	2.58151755752287		
643.935	91.358	2648.536	661.813	2.57078172359995		
644.266	94.750	2638.317	673.600	2.61868468810934		
644.597	96.276	2643.591	671.748	2.61184513238497		
644.928	96.446	2615.238	690.267	2.70936134201885		
645.259	101.194	2587.702	677.977	2.63785950945675		
645.590	104.077	2583.249	688.415	2.67429587910817		
645.921	91.358	2589.351	684.711	2.71999237447331		
646.252	92.376	2585.723	695.148	2.77230233154524		
646.582	94.411	2596.607	688.247	2.73187690339386		
646.913	92.545	2589.681	682.860	2.72031162680826		
647.244	97.294	2577.147	672.758	2.65099169411898		
647.575	108.825	2571.539	663.160	2.56041918042935		
647.905	119.338	2573.519	652.214	2.47082864874641		
648.236	105.773	2553.725	646.319	2.51505878636747		
648.566	100.346	2555.539	654.740	2.58514004802931		
648.897	102.551	2559.333	659.792	2.60643280481354		
649.227	98.311	2548.446	664.676	2.65152916445779		
649.558	90.680	2546.466	678.651	2.76038420015005		
649.888	103.229	2545.806	696.495	2.7923695873071		
650.218	108.316	2549.765	686.563	2.72981151925478		
650.548	104.756	2551.745	687.742	2.75661033589971		
650.879	104.416	2547.291	690.435	2.77750273434148		
651.209	106.451	2541.022	689.425	2.76866526744544		
651.539	100.516	2545.476	681.176	2.77297588213603		
651.869	92.036	2527.987	687.742	2.85226261802546		
652.199	83.217	2518.581	685.385	2.89523595068148		
652.529	86.779	2520.726	687.405	2.8979897545095		
652.859	83.556	2516.766	676.967	2.87825672262975		
653.189	84.574	2509.834	679.997	2.89189519239086		
653.519	84.404	2504.883	678.819	2.89490970448003		
653.848	83.386	2503.893	684.038	2.93475937819432		
654.178	81.690	2502.903	678.987	2.92053752818035		
654.508	88.644	2507.359	670.401	2.85354728619041		
654.838	94.750	2511.485	652.382	2.73446955096036		
655.167	105.095	2523.036	650.530	2.6792438696025		
655.497	115.947	2513.465	643.456	2.59546074737668		
655.826	112.216	2506.369	637.560	2.59389304366782		
656.156	105.603	2484.250	644.972	2.66326788537149		
656.485	105.943	2466.090	665.012	2.77324975388759		
656.815	101.025	2454.036	663.834	2.7917925187017		
657.144	95.598	2440.825	666.696	2.84736064028569		
657.473	102.890	2438.018	677.977	2.87199508209		
657.802	113.403	2435.871	667.875	2.78295227541899		
658.132	112.216	2442.972	655.919	2.73613043111296		
658.461	109.334	2445.614	654.403	2.75466524501345		
658.790	107.299	2459.155	653.056	2.76445682184336		
659.119	106.112	2473.355	647.161	2.75133693083737		
659.448	89.662	2476.822	651.035	2.86018411920764		
659.777	88.135	2463.283	643.624	2.8451381764534		
660.106	92.036	2455.357	650.193	2.86526708165381		
660.435	101.194	2439.834	656.592	2.86212910914639		
660.764	92.545	2424.804	651.877	2.89162014854374		
661.092	106.112	2435.705	659.287	2.86960418927695		
661.421	103.738	2458.990	664.002	2.91910175824612		
661.750	101.194	2450.073	666.023	2.95169778453153		
662.078	96.276	2453.376	664.676	2.97848001956082		
662.407	102.890	2449.082	678.651	3.0191433231165		
662.736	104.247	2430.751	662.823	2.93825344638071		
663.064	98.481	2401.181	663.160	2.97553060666619		
663.393	97.972	2398.207	652.887	2.93372442339111		
663.721	105.095	2384.658	635.876	2.8115954682564		
664.049	100.855	2377.553	620.714	2.75963397643262		
664.378	102.381	2363.340	628.801	2.79725017633493		
664.706	110.012	2375.404	626.442	2.76013212974655		
665.034	115.777	2366.315	623.747	2.72090850170731		
665.362	101.873	2353.753	641.603	2.90666787023387		
665.691	102.212	2332.097	649.688	2.96445356624142		
666.019	98.142	2326.972	651.877	3.01157200415066		
666.347	94.411	2308.618	648.509	3.01780433431638		
666.675	87.966	2313.909	645.982	3.05653995010105		
667.003	94.241	2316.555	635.876	2.97511984945102		
667.331	92.545	2332.759	631.833	2.97163862335562		
667.658	82.199	2328.460	633.349	3.04228377124367		
667.986	70.833	2328.625	643.119	3.16336234289047		
668.314	66.931	2323.334	660.971	3.29238995584881		
668.642	67.949	2321.020	675.115	3.38857659541348		
668.969	72.699	2316.720	675.283	3.37136305179201		
669.297	77.110	2310.933	670.906	3.32918916177237		
669.625	93.902	2303.491	661.139	3.18803010133372		
669.952	90.849	2296.049	652.887	3.17290431718337		
670.280	88.475	2292.245	636.550	3.10436426451184		
670.607	90.340	2288.771	643.624	3.13844122051904		
670.935	89.153	2306.468	655.077	3.21603060753217		
671.262	83.047	2294.726	662.486	3.29014793486741		
671.589	94.920	2301.672	659.455	3.21537379852144		
671.916	100.855	2304.153	669.390	3.25376578283417		
672.244	96.107	2277.854	658.613	3.22464157150627		
672.571	94.750	2225.567	647.498	3.17738027414226		
672.898	101.194	2213.816	638.571	3.09997789492748		
673.225	99.838	2207.525	635.202	3.09015127068991		
673.552	96.446	2215.968	618.187	3.0256864237987		
673.879	93.563	2212.491	606.898	2.98479054569728		
674.206	98.481	2244.765	609.594	2.9704693605972		
674.533	98.142	2262.303	617.176	3.0250174000123		
674.860	97.463	2253.038	627.453	3.09742299300416		
675.186	106.960	2229.043	641.266	3.13092156183345		
675.513	105.773	2232.022	643.793	3.17608116811782		
675.840	110.012	2225.567	640.929	3.1484520742848		
676.166	105.434	2203.056	643.119	3.19874874762458		
676.493	96.276	2206.201	633.855	3.21413522617246		
676.820	81.181	2220.933	622.736	3.25031124300811		
677.146	87.796	2228.547	632.675	3.2766851264802		
677.473	89.662	2219.112	631.159	3.26129863501481		
677.799	96.107	2220.602	625.937	3.19644611808412		
678.125	106.960	2203.387	626.274	3.14111621488513		
678.452	120.355	2184.513	627.116	3.07625967462115		
678.778	116.455	2167.788	623.073	3.08861608789112		
679.104	104.925	2159.176	622.399	3.16110930282217		
679.430	100.855	2164.807	619.535	3.18780830961835		
679.756	96.955	2170.107	603.528	3.12173334203723		
680.083	79.146	2171.431	602.348	3.23711300427445		
680.409	83.725	2170.935	595.439	3.17359224515808		
680.735	87.287	2170.438	597.630	3.17704262840631		
681.060	98.311	2150.398	604.202	3.15996093996931		
681.386	97.633	2118.094	622.905	3.29443583943132		
681.712	114.421	2097.877	613.975	3.13993962094134		
682.038	115.268	2103.678	622.568	3.20971746253935		
682.364	122.559	2102.849	609.763	3.09153708989464		
682.689	106.112	2122.899	595.102	3.11544922162968		
683.015	113.573	2137.146	589.708	3.04928305749179		
683.341	98.481	2136.484	593.585	3.17824219159673		
683.666	98.651	2114.946	582.798	3.11223948220605		
683.992	96.955	2112.791	593.585	3.2069354682011		
684.317	104.925	2100.529	598.978	3.19733131214909		
684.643	101.703	2099.369	592.068	3.17992598862723		
684.968	112.725	2109.312	594.765	3.13561010065848		
685.293	112.216	2137.146	600.326	3.178827437651		
685.619	110.690	2138.637	600.832	3.2011110226418		
685.944	112.047	2124.058	606.561	3.24230695208303		
686.269	114.590	2119.585	606.561	3.22585351585856		
686.594	110.351	2099.866	608.246	3.27720115794142		
686.919	100.516	2075.005	599.315	3.29625856533592		
687.244	96.446	2062.240	602.517	3.35537536498397		
687.569	89.662	2051.795	587.686	3.31681656001072		
687.894	82.708	2050.800	594.090	3.41683916281633		
688.219	83.556	2055.940	591.394	3.40901292609823		
688.544	95.089	2053.950	596.281	3.37870145386333		
688.869	96.616	2043.173	591.562	3.34372929737604		
689.193	95.768	2059.256	600.157	3.4188525367281		
689.518	95.428	2039.691	595.776	3.39519642410121		
689.843	95.768	2018.629	595.439	3.39871438125851		
690.167	91.867	2017.136	592.574	3.41730447680526		
690.492	87.287	2009.340	583.978	3.40259283739122		
690.816	94.920	2012.160	577.741	3.31012823868029		
691.141	99.159	2018.960	580.775	3.31667009203292		
691.465	99.159	2023.770	573.864	3.27714022380109		
691.790	99.838	2015.643	570.324	3.2677458631681		
692.114	107.977	2033.555	566.109	3.18914737469501		
692.438	100.686	2018.297	564.592	3.23872115958708		
692.762	101.194	2006.686	567.121	3.24576776540789		
693.087	100.516	2021.614	565.435	3.25404786311229		
693.411	102.042	2034.218	570.492	3.28589699885387		
693.735	100.177	2033.555	578.078	3.36346426403498		
694.059	101.703	2026.092	581.450	3.38708435724788		
694.383	94.072	2011.165	570.830	3.37651841800613		
694.707	83.217	1999.719	576.393	3.50836819381838		
695.031	72.530	1972.342	578.247	3.62273587343003		
695.354	75.074	1950.934	573.695	3.5899136454769		
695.678	76.262	1959.564	566.952	3.54021279920465		
696.002	83.895	1987.774	575.887	3.5530926519316		
696.326	94.920	1983.294	573.021	3.4636582106351		
696.649	104.077	1986.944	565.098	3.3453475337054		
696.973	103.568	1989.599	565.435	3.36416387719576		
697.296	105.773	1966.037	563.243	3.34277498724119		
697.620	108.486	1929.354	556.836	3.27873291124905		
697.943	104.756	1912.751	552.958	3.29287667422146		
698.267	96.785	1905.279	556.499	3.39147294091414		
698.590	88.135	1894.817	554.981	3.4450908971804		
698.913	89.662	1904.283	562.569	3.50970490178246		
699.237	86.779	1907.272	559.028	3.50986436221686		
699.560	89.323	1906.774	565.603	3.55362361888965		
699.883	91.867	1911.755	574.370	3.60875681134551		
700.206	96.276	1906.109	577.404	3.6078467820618		
700.529	90.171	1889.669	575.044	3.65296326065714		
700.852	84.234	1879.703	573.864	3.70309508242808		
701.175	91.867	1879.703	567.964	3.6117373822427		
701.498	85.252	1865.251	539.468	3.45922017405919		
701.821	88.644	1848.803	545.876	3.48815946179811		
702.144	94.750	1853.954	543.684	3.43704006786661		
702.466	102.212	1865.085	541.997	3.37805138877949		
702.789	92.884	1856.446	545.370	3.49051190176465		
703.112	104.247	1847.308	552.621	3.47249615390395		
703.434	100.177	1870.733	542.334	3.43061920729467		
703.757	99.499	1860.766	533.396	3.37153176768689		
704.080	100.686	1841.824	530.697	3.34702739637912		
704.402	96.107	1827.533	534.071	3.42361211256612		
704.724	97.294	1827.200	534.577	3.4290187810123		
705.047	96.276	1812.907	523.276	3.35621166101447		
705.369	90.171	1802.268	534.408	3.50340135907314		
705.691	89.832	1802.102	531.035	3.49270833330978		
706.014	100.855	1804.097	517.372	3.31211265450879		
706.336	92.884	1787.971	517.372	3.38602424459409		
706.658	95.259	1760.034	515.854	3.3721064198517		
706.980	95.259	1750.055	524.625	3.45354891189942		
707.302	91.019	1751.386	529.011	3.53262086135357		
707.624	93.902	1758.371	536.095	3.57132553194322		
707.946	101.873	1768.183	546.719	3.6026305536414		
708.268	97.633	1796.283	557.511	3.7340657387481		
708.590	104.586	1798.445	538.287	3.53665516881186		
708.911	98.820	1800.273	528.336	3.50330487734734		
709.233	89.153	1797.946	524.794	3.56191386309211		
709.555	93.732	1784.645	518.384	3.48633684106216		
709.876	98.142	1762.862	523.107	3.50285148267885		
710.198	91.019	1757.872	528.673	3.62022965045613		
710.520	97.633	1737.746	533.902	3.62553502401062		
710.841	102.212	1711.459	538.793	3.65050570307213		
711.162	89.832	1708.796	530.529	3.6995342748187		
711.484	83.895	1716.950	522.264	3.69828882831702		
711.805	86.100	1717.116	523.445	3.69715336775056		
712.126	89.323	1725.435	529.348	3.7355504907227		
712.448	88.135	1725.768	527.324	3.74349586346871		
712.769	95.089	1716.451	527.493	3.69413394244457		
713.090	103.908	1693.153	526.649	3.61780010488924		
713.411	107.638	1680.504	525.637	3.5876629393174		
713.732	105.264	1666.021	521.083	3.57704046665135		
714.053	102.381	1665.189	516.360	3.57208048544268		
714.374	102.890	1677.840	518.890	3.61227095055285		
714.695	105.603	1681.003	510.118	3.52926739924655		
715.016	107.299	1672.514	518.215	3.59094014357334		
715.337	109.503	1665.355	517.541	3.58016974840064		
715.657	112.556	1656.698	516.697	3.55840206832101		
715.978	111.708	1640.380	520.746	3.61673615980481		
716.299	101.703	1631.720	532.215	3.81689134284861		
716.619	90.680	1633.385	516.528	3.77546288545967		
716.940	82.368	1648.040	507.081	3.76681023951659		
717.260	85.252	1657.530	506.069	3.76582653552545		
717.581	91.358	1662.692	489.871	3.57799915742562		
717.901	98.142	1662.692	489.533	3.53206162620203		
718.221	102.551	1639.547	496.451	3.56903166893678		
718.542	111.369	1598.406	508.093	3.61909282960043		
718.862	116.455	1577.079	501.851	3.52711325309256		
719.182	109.503	1559.913	524.288	3.81751411562836		
719.502	106.282	1553.079	512.986	3.73609833464763		
719.822	110.012	1565.080	510.287	3.6926878897801		
720.142	100.686	1577.912	501.176	3.70913166652999		
720.462	91.867	1567.080	504.044	3.83143161154656		
720.782	86.270	1550.746	494.258	3.79543049637064		
721.102	87.966	1539.911	507.587	3.92672843835874		
721.422	82.368	1525.573	496.620	3.89110258653869		
721.742	80.333	1528.240	505.057	4.00613013465911		
722.062	85.082	1534.909	504.550	3.96593482009546		
722.381	96.276	1539.410	498.982	3.81454702383233		
722.701	93.563	1529.574	488.014	3.75116990973374		
723.021	103.908	1533.742	495.608	3.74004489502062		
723.340	115.099	1521.404	493.752	3.6164531081031		
723.660	112.047	1507.063	483.289	3.5642212405316		
723.979	109.334	1492.053	488.014	3.64911971944872		
724.298	106.960	1494.222	476.201	3.58711550593368		
724.618	95.428	1475.372	472.825	3.6821930553174		
724.937	96.107	1467.031	466.917	3.63404997963327		
725.256	90.510	1443.169	466.580	3.70201187349428		
725.576	91.188	1434.825	465.229	3.70320618176959		
725.895	99.499	1416.130	470.631	3.6731363806765		
726.214	105.434	1420.637	461.009	3.54252604322911		
726.533	105.773	1419.636	454.088	3.4723259763409		
726.852	107.977	1441.000	452.568	3.4567222671363		
727.171	101.194	1447.341	448.010	3.48982074094352		
727.490	96.616	1445.172	447.841	3.55322113470558		
727.808	96.107	1440.666	452.906	3.62049862760025		
728.127	91.358	1433.490	444.802	3.61280052299052		
728.446	96.446	1413.793	449.192	3.61721212588037		
728.765	100.855	1399.268	447.841	3.56423770956942		
729.083	94.072	1382.403	444.802	3.61047434212969		
729.402	97.803	1362.863	446.828	3.59777135897065		
729.720	97.633	1362.362	457.464	3.71098773094692		
730.039	92.715	1377.560	460.165	3.81778652630195		
730.357	97.463	1389.417	451.555	3.69420367839114		
730.676	100.346	1390.920	453.244	3.69441244702681		
730.994	96.446	1396.597	450.880	3.72738073465523		
731.312	97.463	1394.593	452.568	3.74718861178554		
731.630	96.276	1391.755	454.763	3.80408904191813		
731.949	91.188	1387.079	457.464	3.91013641444974		
732.267	97.463	1388.582	454.763	3.82276396830067		
732.585	92.376	1374.554	457.464	3.91263359098655		
732.903	92.206	1360.524	451.049	3.86387260067484		
733.221	101.364	1339.475	450.880	3.77817096463927		
733.539	101.025	1333.126	458.140	3.87936357097474		
733.857	94.411	1325.440	464.892	4.0353301075925		
734.174	95.937	1326.944	467.930	4.0671548934272		
734.492	103.060	1322.933	455.607	3.86736838115126		
734.810	98.481	1334.797	448.685	3.86416931611038		
735.128	103.568	1341.647	438.892	3.70919317578404		
735.445	103.399	1350.335	434.333	3.67642128996264		
735.763	112.725	1346.993	427.072	3.50124549808185		
736.080	110.012	1352.005	440.919	3.7023772978768		
736.398	107.638	1329.116	442.607	3.76767754448223		
736.715	105.943	1307.224	443.114	3.80281320733812		
737.033	112.216	1286.998	451.724	3.83856329577432		
737.350	106.282	1283.488	450.542	3.9105980683175		
737.667	98.311	1265.597	441.594	3.92147088709067		
737.984	105.603	1274.459	441.932	3.85838345756173		
738.301	108.995	1277.302	438.048	3.80776204993379		
738.619	112.556	1294.688	426.903	3.65260120875451		
738.936	116.794	1304.884	422.849	3.58182192819735		
739.253	118.490	1298.365	428.591	3.64835172960209		
739.570	110.351	1275.128	418.289	3.63640601483724		
739.886	108.656	1264.093	418.627	3.67242719587164		
740.203	104.925	1246.199	406.972	3.59601869553384		
740.520	97.803	1233.487	400.215	3.61473607004967		
740.837	93.224	1227.465	389.571	3.55696845769293		
741.154	94.411	1236.832	391.092	3.57203740243056		
741.470	100.686	1230.141	399.708	3.61931748687719		
741.787	102.890	1230.977	411.364	3.75375666891043		
742.103	108.825	1224.621	423.356	3.84678723048114		
742.420	117.812	1233.487	429.436	3.83443280809075		
742.736	115.947	1223.951	433.151	3.90960691000424		
743.053	106.621	1221.777	429.774	4.00131712929925		
743.369	109.673	1224.119	429.774	3.98542889597763		
743.685	112.556	1218.598	419.978	3.83069453622751		
744.001	115.777	1210.400	415.418	3.75358409933279		
744.318	118.320	1202.535	406.297	3.61416570163868		
744.634	121.881	1213.746	398.019	3.4689372859094		
744.950	114.929	1205.547	398.019	3.56347731284419		
745.266	114.421	1210.734	409.168	3.71644834710176		
745.582	110.690	1214.917	418.120	3.876721299298		
745.898	111.538	1222.613	426.565	3.98958782440352		
746.214	104.586	1208.727	438.723	4.22664160958281		
746.529	109.673	1205.547	441.763	4.21551683215864		
746.845	107.469	1181.616	431.293	4.12055932751767		
747.161	102.212	1161.195	425.045	4.11822882730718		
747.476	96.955	1168.058	428.423	4.22663893501099		
747.792	103.738	1168.895	424.707	4.09169905723153		
748.108	95.598	1160.692	411.195	4.02720521769435		
748.423	88.135	1186.303	415.418	4.1826727429786		
748.739	87.627	1200.360	423.187	4.28470065165763		
749.054	91.019	1201.197	424.707	4.26004398242433		
749.369	81.520	1202.201	419.978	4.32521638952375		
749.685	91.358	1219.434	427.072	4.29482619561983		
750.000	101.534	1210.065	439.905	4.32816857431343		
750.315	111.030	1199.858	438.217	4.18575617115591		
750.630	108.825	1188.980	430.449	4.11418343650565		
750.945	112.556	1176.762	427.747	4.03955304248156		
751.260	112.047	1164.710	426.565	4.03324131129663		
751.575	110.521	1169.230	413.560	3.88064936808234		
751.890	104.756	1179.441	413.222	3.94630081649272		
752.205	118.829	1181.784	419.472	3.84413374431166		
752.520	120.524	1187.474	419.978	3.82802718298243		
752.835	119.677	1187.809	422.005	3.86572841617663		
753.149	121.202	1189.985	427.578	3.91483959203911		
753.464	115.438	1190.989	422.681	3.93309688318971		
753.779	100.686	1198.687	416.600	4.0498468617705		
754.093	100.855	1204.543	421.667	4.12164479994441		
754.408	91.019	1210.232	423.187	4.28554757001057		
754.722	81.860	1211.404	414.573	4.28684737330332		
755.037	85.591	1228.970	417.614	4.28972010124827		
755.351	102.551	1236.832	415.587	4.04923687803194		
755.665	101.873	1233.821	413.391	4.02736393009836		
755.980	98.481	1224.788	410.351	4.02726757660867		
756.294	102.212	1217.092	411.871	4.01190820497034		
756.608	98.311	1198.017	408.830	4.0214548034998		
756.922	84.913	1171.741	413.053	4.2547758472951		
757.236	88.135	1173.582	417.107	4.26342534524801		
757.550	95.937	1187.976	418.627	4.18468948602586		
757.864	95.768	1192.830	421.498	4.2397985931456		
758.178	100.007	1196.679	418.965	4.16444772490103		
758.492	99.499	1201.197	419.134	4.16468106611471		
758.805	107.977	1199.858	416.094	4.01018287053946		
759.119	115.099	1194.503	399.033	3.7050725714067		
759.433	110.521	1189.650	397.174	3.74737233438154		
759.746	111.538	1179.775	411.871	3.93774170111937		
760.060	116.286	1197.181	405.621	3.78536636588646		
760.373	104.586	1206.719	410.013	4.00737326192876		
760.687	103.568	1217.594	421.498	4.19760503102083		
761.000	109.503	1221.107	429.436	4.25106656384306		
761.314	107.977	1227.632	418.289	4.14335831755244		
761.627	104.586	1220.271	419.978	4.22623961997849		
761.940	104.416	1201.364	414.067	4.16307563872102		
762.253	99.838	1187.809	423.018	4.35915250722623		
762.567	95.259	1182.788	417.783	4.36427240103557		
762.880	98.651	1184.127	419.472	4.34108722165683		
763.193	95.428	1195.005	420.316	4.40053407841537		
763.506	99.329	1214.917	410.013	4.2262274142202		
763.819	101.194	1216.758	409.168	4.21034372156931		
764.131	105.264	1215.586	405.452	4.11822409844061		
764.444	106.960	1218.598	403.256	4.09041358478371		
764.757	115.777	1191.323	416.938	4.16309582253987		
765.070	110.351	1159.688	425.045	4.37449714961677		
765.382	106.790	1142.610	419.134	4.35641482749165		
765.695	103.399	1140.601	416.094	4.36059092455673		
766.008	98.481	1136.582	411.364	4.372543020261		
766.320	92.376	1147.968	395.654	4.24882643349729		
766.633	94.411	1168.560	396.667	4.24964297036648		
766.945	96.107	1184.964	391.430	4.17379649290746		
767.257	103.738	1175.089	399.539	4.18933149715443		
767.570	104.925	1159.353	404.607	4.27693768769117		
767.882	103.568	1152.656	405.114	4.33193730163405		
768.194	102.890	1135.409	411.702	4.44784018329594		
768.506	99.838	1108.109	420.992	4.64729118580278		
768.818	96.276	1102.581	411.364	4.5733257705286		
769.130	92.376	1107.774	407.986	4.60604097318519		
769.442	89.832	1102.414	404.269	4.6259058770743		
769.754	95.259	1107.272	399.201	4.48766445374504		
770.066	92.545	1115.647	402.749	4.60289279338526		
770.378	84.065	1110.622	402.749	4.76768228452072		
770.690	78.467	1095.210	397.512	4.7995252034429		
771.001	81.690	1075.606	403.932	4.87811989162847		
771.313	74.565	1049.963	404.101	5.01122246208656		
771.625	72.869	1042.084	382.306	4.71872928932637		
771.936	78.637	1041.414	369.801	4.47047696449693		
772.248	86.270	1046.945	376.898	4.48216911355013		
772.559	85.930	1058.008	372.843	4.44911268554711		
772.870	90.680	1072.086	365.914	4.28689385389686		
773.182	97.294	1065.048	368.449	4.25781647278421		
773.493	89.153	1058.846	389.571	4.72749242423529		
773.804	92.884	1060.523	380.278	4.55653155904258		
774.115	101.025	1046.945	381.461	4.46741638506941		
774.426	102.381	1024.648	373.519	4.35135195433807		
774.738	99.668	1015.425	382.475	4.56027340538479		
775.049	105.943	1007.376	367.773	4.25029397398682		
775.359	103.908	995.635	358.139	4.13964374326271		
775.670	101.364	987.584	355.265	4.16903325838309		
775.981	104.077	993.455	359.998	4.22099009425965		
776.292	111.538	986.913	357.294	4.08042512534122		
776.603	112.047	972.821	357.970	4.10878685854916		
776.913	108.825	963.928	367.266	4.34206650077381		
777.224	107.299	960.237	365.914	4.38762474391565		
777.535	97.633	966.278	370.815	4.66844725221347		
777.845	100.686	984.900	362.364	4.49682820843418		
778.156	99.838	1001.003	362.195	4.53428865532496		
778.466	112.895	989.932	365.576	4.38195168093352		
778.776	115.777	976.512	361.350	4.27625332887439		
779.087	115.777	959.062	351.715	4.12744847648067		
779.397	105.603	940.770	360.843	4.47109773868552		
779.707	110.351	928.349	354.927	4.30093793127557		
780.017	105.264	929.021	350.532	4.33840175028482		
780.327	110.182	938.588	344.446	4.16400536812312		
780.637	110.182	930.699	331.428	3.95301389557211		
780.947	120.016	918.613	321.452	3.62847926003553		
781.257	120.524	911.561	325.003	3.70765980343675		
781.567	113.234	909.043	332.950	4.00633281454313		
781.877	103.568	911.058	342.249	4.3775178018008		
782.187	107.469	911.058	355.096	4.55807966500506		
782.496	93.224	916.094	352.054	4.79225717528602		
782.806	94.072	914.751	352.054	4.79990079507449		
783.116	101.025	906.021	343.770	4.52978871582392		
783.425	101.534	892.755	333.964	4.36005571859224		
783.735	100.855	877.472	331.766	4.35244366730006		
784.044	108.825	868.737	340.220	4.37656551122118		
784.354	105.603	872.433	334.641	4.36100419003316		
784.663	112.047	864.538	330.245	4.16230312222201		
784.972	109.503	855.298	341.234	4.45972389233385		
785.281	115.268	858.154	341.572	4.38262151698969		
785.591	115.947	857.314	335.317	4.27836991169627		
785.900	122.220	847.737	333.626	4.14313011478064		
786.209	111.538	846.897	331.428	4.34156647849601		
786.518	119.846	845.721	321.452	4.00163821377389		
786.827	114.590	853.786	318.577	4.07708283271534		
787.136	110.521	847.065	309.783	3.99134235917955		
787.444	106.621	839.840	309.613	4.08720516072255		
787.753	107.638	842.865	318.915	4.27369616581302		
788.062	97.124	849.922	314.518	4.42437765791525		
788.371	96.446	836.143	318.746	4.53578797718674		
788.679	94.072	830.598	321.959	4.67117322284198		
788.988	87.457	834.127	318.915	4.77725004934553		
789.296	82.877	826.900	314.856	4.80564019256126		
789.605	77.110	815.135	317.900	5.00947193076555		
789.913	75.074	814.799	324.495	5.20645219067458		
790.221	78.806	816.648	327.708	5.21750915316416		
790.530	73.887	811.773	333.626	5.47604656355254		
790.838	67.779	811.437	328.554	5.52167009319322		
791.146	73.887	815.135	332.443	5.48857399873181		
791.454	79.146	811.101	321.621	5.16831278863829		
791.762	78.976	797.484	323.481	5.23043148541269		
792.070	91.867	792.104	318.577	4.87160406813192		
792.378	96.446	784.874	312.489	4.6842607440752		
792.686	106.960	785.715	308.260	4.38326860654717		
792.994	110.860	790.591	299.972	4.15138664107892		
793.302	112.895	783.865	303.186	4.19390983247527		
793.610	113.403	771.590	296.251	4.06905509946973		
793.917	114.929	773.608	294.559	4.01631466471155		
794.225	106.960	749.724	292.360	4.16606737629996		
794.532	90.849	734.247	300.649	4.71693604955536		
794.840	91.697	742.995	297.266	4.65450963377829		
795.147	78.297	751.407	307.076	5.19605653032471		
795.455	77.110	751.238	308.937	5.31295655094504		
795.762	87.287	766.376	308.260	5.06986660540189		
796.069	97.294	765.199	300.649	4.69587072980067		
796.377	98.820	759.144	297.943	4.62894068471204		
796.684	96.616	743.164	290.669	4.54464691056055		
796.991	101.534	734.247	292.360	4.49885144913507		
797.298	91.358	718.430	301.495	4.97659860152221		
797.605	91.697	720.954	300.311	4.96274081324894		
797.912	84.574	727.517	303.017	5.22243592928476		
798.219	87.287	739.967	306.907	5.26766254446071		
798.526	87.627	733.238	303.017	5.193629565408		
798.833	86.609	746.024	292.868	4.9844123128519		
799.139	82.029	736.434	298.450	5.24066161858484		
799.446	88.983	721.796	286.608	4.81148324779453		
799.753	96.107	709.511	284.071	4.59686974286534		
800.059	97.294	703.452	285.255	4.62944142173864		
800.366	93.563	693.184	283.732	4.70247778448281		
800.672	100.346	699.749	279.164	4.44424994918661		
800.979	95.937	694.699	287.285	4.78543062486521		
801.285	104.586	692.848	289.992	4.67457910953921		
801.591	103.908	692.511	286.947	4.64397314963811		
801.897	108.147	682.747	282.886	4.45699299744617		
802.204	110.012	666.416	294.729	4.72048551164416		
802.510	115.268	667.594	291.345	4.51722949743699		
802.816	114.251	674.834	281.025	4.29268740269839		
803.122	109.673	663.721	279.333	4.37819542398873		
803.428	115.947	669.615	284.409	4.35659265777335		
803.734	106.621	681.232	273.581	4.33661726960306		
804.040	104.247	677.865	269.350	4.31059828695481		
804.345	98.481	671.635	278.318	4.73792014299025		
804.651	107.469	689.481	284.409	4.70385539916393		
804.957	109.503	684.599	282.379	4.60254196021582		
805.262	119.677	687.293	288.808	4.53253542042027		
805.568	117.133	691.164	297.097	4.84344645897049		
805.873	112.725	673.656	293.714	4.88731644110743		
806.179	110.690	656.480	292.360	4.90919044138025		
806.484	107.638	646.881	292.022	4.98454911932031		
806.790	104.416	631.384	281.533	4.80301139591722		
807.095	100.516	617.401	280.179	4.89497147441283		
807.400	105.943	616.558	276.795	4.68102844121863		
807.705	101.025	624.308	266.981	4.57321836539712		
808.010	97.124	627.004	265.289	4.66977071658352		
808.316	91.867	634.585	273.919	5.11568925926356		
808.621	84.234	639.301	269.012	5.24585918456349		
808.925	76.601	649.070	266.135	5.4163111100822		
809.230	73.208	645.028	271.381	5.71555345571297		
809.535	76.092	634.248	270.027	5.63741459460026		
809.840	78.637	620.771	264.274	5.40895250634488		
810.145	86.779	612.178	251.750	4.84545603555485		
810.449	96.955	606.954	252.935	4.59087583227289		
810.754	101.703	595.326	246.672	4.27646007697918		
811.059	102.551	595.326	252.258	4.44569972067273		
811.363	100.855	596.000	258.012	4.69600399157006		
811.668	111.538	607.628	273.581	4.8590600520598		
811.972	112.895	596.675	275.442	4.90338231646492		
812.276	115.608	597.517	282.886	5.05523213459593		
812.581	111.708	594.821	275.949	4.99419251613772		
812.885	109.673	590.102	272.735	4.99748931167149		
813.189	98.311	579.989	261.735	5.04264134951276		
813.493	97.972	578.809	262.920	5.10047105433487		
813.797	103.229	579.314	258.181	4.83068437323769		
814.101	103.738	576.449	260.043	4.91397274482876		
814.405	103.399	575.774	255.812	4.8183226827296		
814.709	102.381	560.770	254.289	4.80551938989423		
815.013	94.241	556.555	252.088	4.99678775502339		
815.316	85.930	546.607	244.133	4.99650450976117		
815.620	84.574	552.846	243.287	5.04855653022368		
815.924	86.439	559.084	243.456	5.00004257932482		
816.227	94.072	567.683	250.227	4.99696649567216		
816.531	101.534	566.334	250.565	4.78654274051612		
816.834	105.773	571.054	263.935	5.11285811888712		
817.138	108.486	570.211	259.874	4.90846532378159		
817.441	104.077	557.735	258.181	5.02928233368144		
817.745	97.633	553.014	252.935	5.07977303702241		
818.048	96.276	556.387	241.933	4.80373709186532		
818.351	90.680	548.461	241.086	4.99027611072967		
818.654	86.609	535.139	238.547	5.06497046737382		
818.957	96.446	532.440	238.886	4.78429458598739		
819.260	103.908	527.886	242.610	4.69876688636818		
819.563	100.516	532.609	245.657	4.96971335010287		
819.866	92.376	536.319	238.039	5.04002068447212		
820.169	97.633	539.186	239.563	4.91399353355116		
820.472	98.142	536.488	238.039	4.86184018993315		
820.775	102.721	534.127	229.405	4.42488491432337		
821.077	109.164	516.247	235.500	4.43090380304273		
821.380	121.711	503.088	234.146	3.97167291854907		
821.682	117.642	499.207	236.177	4.2087005471148		
821.985	111.030	494.820	233.976	4.37822855472895		
822.287	99.329	487.564	244.302	5.20136843819843		
822.590	87.457	490.264	233.976	5.28603287692977		
822.892	87.966	490.433	239.732	5.52765458389578		
823.194	85.761	487.733	229.744	5.27355362330492		
823.497	88.814	489.421	227.035	5.08325507035108		
823.799	85.761	496.845	223.649	5.0754499124979		
824.101	84.913	494.820	223.310	5.12525860631919		
824.403	86.948	493.133	222.971	5.06388063845137		
824.705	93.224	490.264	234.823	5.30555218164104		
825.007	92.376	489.927	234.484	5.32940562728221		
825.309	99.159	483.852	229.236	4.90649182274016		
825.611	104.247	483.008	244.979	5.33923791092152		
825.912	100.346	477.776	239.393	5.30177046188121		
826.214	94.920	489.083	236.516	5.4217994654527		
826.516	95.768	484.864	234.823	5.34571574460976		
826.817	98.481	492.289	229.236	5.03867677858346		
827.119	96.107	490.602	224.326	4.96018064484669		
827.420	99.159	500.726	225.342	4.88374601570392		
827.722	102.212	483.177	229.744	4.95229361814614		
828.023	100.855	476.932	234.146	5.21411064041965		
828.324	99.499	477.270	240.071	5.52329590546116		
828.626	105.773	476.595	225.850	4.73388342524767		
828.927	94.580	472.375	223.310	5.09813782219923		
829.228	96.785	470.350	210.780	4.56389194344632		
829.529	104.925	473.388	208.917	4.18819180338068		
829.830	105.264	454.651	207.562	4.13736272167396		
830.131	100.346	447.897	221.109	4.90553320034846		
830.432	99.329	444.014	230.760	5.37352966834826		
830.733	97.633	445.703	237.701	5.7692804344352		
831.034	89.323	449.923	240.578	6.3083501111971		
831.334	87.287	462.416	248.873	6.75041775873852		
831.635	82.708	462.585	242.271	6.70397080417349		
831.936	89.153	446.884	235.669	6.20468060126716		
832.236	91.358	439.793	226.188	5.75144675516775		
832.537	93.902	422.906	218.569	5.35846770539014		
832.837	96.785	413.954	209.594	4.87798617167126		
833.138	98.481	404.664	205.530	4.62133213465791		
833.438	94.072	417.163	202.312	4.6973430081664		
833.738	93.563	421.386	207.732	5.01973500571839		
834.038	89.153	423.750	210.272	5.33845591182031		
834.338	90.001	417.332	210.949	5.35364178594899		
834.639	96.616	420.203	212.643	5.15375287098901		
834.939	96.107	419.021	208.070	5.0128012323117		
835.239	98.481	416.150	207.732	4.93300449415621		
835.538	103.568	410.745	207.223	4.69483483784174		
835.838	97.124	401.961	206.377	4.92981322174738		
836.138	97.463	399.765	210.610	5.14464662833462		
836.438	111.030	397.230	212.473	4.64032631481401		
836.738	107.299	402.468	206.715	4.5619415958224		
837.037	108.486	396.893	204.853	4.43943533766258		
837.337	104.416	398.413	206.038	4.70108222414323		
837.636	102.212	391.148	202.312	4.65578181909002		
837.936	96.276	376.448	216.368	5.62766738553594		
838.235	97.294	359.885	226.188	6.07832084770783		
838.534	92.545	371.547	223.141	6.18720039517713		
838.834	105.943	381.179	221.786	5.50187654926758		
839.133	107.638	380.841	228.728	5.76170106388836		
839.432	103.060	369.350	218.230	5.50383042040447		
839.731	107.808	385.404	205.699	4.71428191363055		
840.030	104.925	380.334	207.732	4.96869914910293		
840.329	90.171	369.857	200.110	5.32846551191452		
840.628	87.457	369.688	192.827	5.13720631475333		
840.927	89.492	392.162	183.511	4.63187266960826		
841.226	78.637	379.658	199.941	6.01439332439596		
841.525	78.297	374.082	192.658	5.70806847531639		
841.823	88.475	374.589	195.707	5.37636197514434		
842.122	87.457	378.307	189.609	5.17486928173799		
842.421	89.832	373.237	200.788	5.69582687668142		
842.719	91.697	368.674	192.997	5.22789348411762		
843.017	100.516	364.618	199.602	5.12075165517557		
843.316	96.276	365.463	194.352	5.12450451798553		
843.614	94.241	361.914	198.586	5.47567385613511		
843.913	95.428	365.632	185.713	4.75869409134614		
844.211	97.972	362.421	185.882	4.64978167561713		
844.509	95.937	366.139	189.101	4.93139315840821		
844.807	95.089	373.744	192.827	5.20020675523573		
845.105	99.499	374.927	188.423	4.76812259951882		
845.403	94.920	368.505	196.215	5.42020505787078		
845.701	92.036	367.322	183.850	4.95644959021911		
845.999	88.475	368.843	179.615	4.93874518671708		
846.297	88.305	356.674	188.593	5.44859832332307		
846.594	88.644	357.350	193.166	5.70741081127639		
846.892	97.294	352.786	197.231	5.51053014974047		
847.190	96.107	356.336	209.594	6.29880963047695		
847.487	94.072	346.362	215.183	6.76109446403022		
847.785	101.873	341.798	201.804	5.58717627054219		
848.082	92.715	338.078	203.328	6.2622726862198		
848.380	84.574	339.431	199.433	6.53672128775241		
848.677	85.930	336.726	194.182	6.1810150927847		
848.974	88.983	343.150	185.882	5.5355122777259		
849.272	82.877	342.474	192.489	6.28649492837631		
849.569	90.340	334.359	190.287	5.78279771181007		
849.866	92.884	333.852	193.844	5.88121138643474		
850.163	100.686	337.909	190.287	5.23928827310368		
850.460	96.955	334.528	195.876	5.83621896874937		
850.757	95.598	341.291	190.625	5.63331267433597		
851.054	102.551	352.110	191.811	5.32175596578973		
851.350	100.686	350.927	190.795	5.41071468899929		
851.647	99.668	341.629	194.182	5.69878905360102		
851.944	97.972	332.499	191.980	5.69508285754426		
852.240	105.264	330.977	199.602	5.71112103076766		
852.537	104.416	318.633	197.231	5.65660381977792		
852.834	99.838	310.854	196.723	5.97183929747781		
853.130	92.545	303.581	191.134	6.11380227947832		
853.426	103.738	305.441	191.134	5.46616302826249		
853.723	100.177	305.780	184.527	5.32426383631575		
854.019	89.153	307.640	184.527	6.06206810425263		
854.315	97.972	311.530	188.932	5.84405847944085		
854.611	99.838	313.221	190.625	5.87155229413694		
854.907	95.598	322.861	184.358	5.75876315537543		
855.203	99.499	310.854	184.188	5.52084796247578		
855.499	107.977	310.008	185.713	5.0680964642634		
855.795	98.142	308.148	181.309	5.45615823670694		
856.091	96.616	315.589	190.117	6.16357922015923		
856.387	102.890	308.993	190.287	5.80257695508004		
856.683	98.651	317.449	194.860	6.42988055745111		
856.978	98.142	314.913	186.391	5.89577979145579		
857.274	99.838	310.685	182.494	5.56787174316251		
857.570	96.785	306.118	179.276	5.61404519004		
857.865	93.563	315.758	181.139	5.96985625495083		
858.161	96.446	311.192	176.735	5.53229497417431		
858.456	93.902	308.655	188.254	6.55688429945688		
858.751	91.358	318.295	190.287	6.93558874969554		
859.046	92.376	308.993	188.085	6.79818680769056		
859.342	87.118	293.601	187.068	7.14734595810151		
859.637	85.761	300.705	183.680	7.04571730295649		
859.932	83.217	299.014	169.619	6.26520056513373		
860.227	94.750	288.526	161.486	4.84677521226535		
860.522	103.229	290.556	155.385	3.81266262815276		
860.817	106.451	290.048	152.335	3.37466942068912		
861.112	112.556	283.958	157.758	3.34373216739216		
861.406	113.742	287.680	164.366	3.79117093207976		
861.701	101.364	274.652	173.007	5.38078790009467		
861.996	98.311	270.084	176.396	5.91762606321048		
862.290	89.153	267.207	179.276	6.90632920920454		
862.585	84.913	265.684	186.391	7.80822553067027		
862.879	89.662	269.407	181.478	7.13570827778013		
863.174	89.492	281.928	178.937	7.0181773266019		
863.468	91.697	290.725	182.325	7.1424532299184		
863.762	99.499	294.785	186.391	6.91994159364773		
864.057	100.855	292.755	176.904	6.09233001144702		
864.351	93.563	285.988	190.625	7.80082322856422		
864.645	100.177	286.665	180.970	6.5620302634374		
864.939	107.638	286.496	182.833	6.10574488987514		
865.233	101.703	276.006	174.193	5.90854162944768		
865.527	98.311	273.806	169.280	5.79468971016146		
865.821	101.873	280.743	159.791	4.74419897205217		
866.115	100.686	283.620	165.891	5.37603277855181		
866.408	91.358	280.067	162.163	5.9006674488906		
866.702	94.241	292.417	163.688	5.81815171834009		
866.996	96.955	289.372	166.908	5.92682230555613		
867.289	102.890	284.127	168.772	5.683587416283		
867.583	104.077	278.544	158.435	4.74455568600679		
867.876	99.329	272.960	147.589	4.27637683617258		
868.170	107.977	265.176	138.098	2.69060662333018		
868.463	107.469	258.745	137.081	2.6658266994695		
868.756	106.282	252.483	132.504	2.36044516147224		
869.049	101.194	253.330	137.250	3.28311707439294		
869.343	110.860	262.130	140.640	2.74508977167928		
869.636	103.399	259.592	152.335	4.52412524634372		
869.929	102.721	259.592	160.977	5.40952012816657		
870.222	103.908	258.407	169.449	6.14981650281729		
870.515	107.977	251.637	164.705	5.3626483911215		
870.807	107.977	238.434	170.974	6.02537576348199		
871.100	108.656	242.835	164.874	5.34441420756779		
871.393	97.633	250.622	151.657	5.11730412545414		
871.686	88.305	252.653	145.556	5.51667845875743		
871.978	92.036	247.236	155.555	6.13457349360639		
872.271	89.662	246.051	150.640	5.94004183647246		
872.563	89.832	240.804	154.029	6.26360601631158		
872.856	100.855	244.697	158.605	5.73117799898627		
873.148	106.282	240.635	156.910	5.10522774756883		
873.440	100.855	245.544	150.640	5.0329951374555		
873.733	88.475	253.837	151.996	6.40358524232974		
874.025	86.100	257.561	154.707	7.01021854591089		
874.317	82.877	249.437	157.758	7.67837732463268		
874.609	78.637	247.744	158.605	8.29416840808163		
874.901	89.323	244.528	156.741	7.00122175870155		
875.193	97.803	245.882	153.182	5.79665128184834		
875.485	110.351	248.083	138.606	2.99329988044489		
875.776	101.534	255.191	135.555	3.66692449037134		
876.068	104.586	250.452	141.996	4.07418408286497		
876.360	96.616	243.682	154.877	6.44795701607772		
876.652	92.376	235.387	158.944	7.45321387205296		
876.943	82.199	225.737	175.040	10.4446749672727		
877.235	89.662	212.868	175.040	9.64197788025827		
877.526	83.725	217.610	165.891	9.30923757998274		
877.817	81.351	225.229	157.758	8.68243111175624		
878.109	78.128	226.414	151.996	8.44643416307388		
878.400	77.449	222.351	153.351	8.65999648285261		
878.691	81.011	225.568	153.690	8.334136073664		
878.982	93.224	228.446	157.080	7.41183421632217		
879.273	103.568	228.784	160.469	6.6305442661221		
879.564	115.777	224.552	171.144	6.54008766843255		
879.855	114.082	228.784	164.197	5.9528538204736		
880.146	117.473	223.874	162.163	5.34615459749423		
880.437	105.603	220.996	160.469	6.59877439538362		
880.728	104.925	218.964	149.793	5.39951507907997		
881.019	99.668	222.859	148.098	5.86491873138397		
881.309	99.499	223.874	151.996	6.44827782316514		
881.600	92.884	228.277	149.962	7.01496558610331		
881.890	101.364	229.292	148.098	5.74939265251253		
882.181	99.668	229.631	150.301	6.23046024087977		
882.471	97.803	230.308	134.199	4.51277267753559		
882.761	101.703	231.493	118.094	2.08045751318806		
883.052	108.656	229.462	118.942	1.3262831242128		
883.342	112.047	226.753	116.907	0.63714941319633		
883.632	113.403	227.091	118.772	0.711929367734855		
883.922	120.270	227.134	125.342	0.683811338967622		
884.212	124.932	225.229	139.115	0.683811338967622		
